#   1 NUMBER                 Running object number                                     
#   2 X_IMAGE                Object position along x                                    [pixel]
#   3 Y_IMAGE                Object position along y                                    [pixel]
#   4 MAG_AUTO               Kron-like elliptical aperture magnitude                    [mag]
#   5 MAGERR_AUTO            RMS error for AUTO magnitude                               [mag]
#   6 MAG_ISO                Isophotal magnitude                                        [mag]
#   7 MAGERR_ISO             RMS error for isophotal magnitude                          [mag]
#   8 MAG_APER               Fixed aperture magnitude vector                            [mag]
#   9 MAGERR_APER            RMS error vector for fixed aperture mag.                   [mag]
#  10 A_IMAGE                Profile RMS along major axis                               [pixel]
#  11 B_IMAGE                Profile RMS along minor axis                               [pixel]
#  12 THETA_IMAGE            Position angle (CCW/x)                                     [deg]
#  13 KRON_RADIUS            Kron apertures in units of A or B                         
#  14 BACKGROUND             Background at centroid position                            [count]
#  15 FLAGS                  Extraction flags                                          
#  16 CLASS_STAR             S/G classifier output                                     
         1   8471.0801     46.3373  15.2576   0.1127  14.0483   0.0646  14.3593   0.0745    17.786    14.794  14.05  3.50     15.78999  19  0.026
         2   8498.3105     10.5651  15.0589   0.1028  14.8789   0.0947  15.0855   0.1041    18.461     7.733   7.58  3.50    -12.09532  27  0.001
         3    471.0627     56.9456  11.7204   0.0221  11.3591   0.0187  14.3846   0.0754   226.762    12.627  -0.89  3.50     18.50628  17  0.001
         4    394.5597     11.5339  99.0000  99.0000  12.1862   0.0274  15.1281   0.1062   227.400     7.412  -0.03  0.00    -16.10693  25  0.058
         5   7217.4556     26.9461  20.3344   1.1679  21.6943   2.1840  99.0000  99.0000     1.329     0.976  67.26  7.70     48.95635  16  0.654
         6   7573.1079     19.5478  99.0000  99.0000  19.0691   0.6519  99.0000  99.0000     2.429     1.170  84.19  0.00     48.66509  16  0.968
         7   7583.7070     17.7020  19.8539   0.9358  19.3234   0.7329  99.0000  99.0000     3.267     1.013   3.04  3.50     48.64817  16  0.983
         8   6472.4233     13.2282  19.0323   0.6410  19.3202   0.7318  99.0000  99.0000     3.398     2.378  44.49  3.50     49.11575  16  0.003
         9   6448.1387     45.2317  18.1597   0.4289  18.4410   0.4882  18.0764   0.4129     5.113     2.730   8.43  4.64     49.08224   0  0.016
        10   2885.9109    123.9473  14.9213   0.0965  14.9472   0.0977  14.8871   0.0950     6.955     3.849  88.04  3.50     49.41411   3  0.028
        11   2898.6641    140.8887  14.8444   0.0932  14.8490   0.0934  14.8039   0.0914     7.506     2.935 -82.75  3.50     49.41559   3  0.023
        12   3510.8696     59.1669  19.1452   0.6754  19.8287   0.9250  18.9152   0.6080     2.571     1.791  82.51  6.13     49.24101   0  0.105
        13   5397.4370     62.3298  18.9826   0.6267  20.0111   1.0060  18.8249   0.5832     2.499     2.002  80.30  7.03     49.04047   0  0.012
        14   5159.6973    170.2818  15.0449   0.1022  15.0614   0.1029  15.0023   0.1002     7.474     3.758  87.35  3.50     49.08841   3  0.029
        15   5172.4873    187.7148  14.9218   0.0965  14.9156   0.0963  14.8667   0.0941     7.509     2.962 -87.10  3.50     49.08202   3  0.024
        16     51.2001    171.5879  14.8175   0.0920  14.8287   0.0925  14.7855   0.0907     6.163     3.862 -89.54  3.50     49.07317   3  0.022
        17     62.5132    185.5168  15.4183   0.1213  15.4909   0.1255  15.3241   0.1162     7.222     3.431 -74.69  3.50     49.11945   3  0.028
        18   6586.9287    115.5425  19.6771   0.8629  20.6787   1.3681  19.3703   0.7503     2.230     1.311  58.21  6.74     48.99325   0  0.194
        19   6490.9668    121.7738  19.4936   0.7929  19.9350   0.9714  19.3749   0.7519     2.528     1.598  70.93  5.34     49.01442   0  0.326
        20    309.3291    148.2375  18.9294   0.6113  19.0518   0.6467  99.0000  99.0000     3.036     2.263  74.79  3.50     49.26607   2  0.119
        21    318.3781    148.8719  19.4891   0.7911  19.8292   0.9252  99.0000  99.0000     2.943     1.726   4.13  3.50     49.26753   3  0.030
        22   2454.5439    244.3130  14.9116   0.0961  14.9164   0.0963  14.8790   0.0947     6.315     3.335  85.89  3.50     49.41927   3  0.020
        23   8204.5840    241.0212  16.4146   0.1920  16.7367   0.2227  16.4990   0.1996     9.017     6.965  15.84  4.56     48.99614   0  0.000
        24   2357.2012    181.9844  19.3841   0.7540  20.7194   1.3940  19.1763   0.6860     2.077     1.567 -75.82  7.58     49.43415   0  0.135
        25   2466.6667    259.1154  15.7525   0.1415  15.7918   0.1441  15.7021   0.1383     6.656     3.010 -80.18  3.50     49.40898   3  0.027
        26    508.7892    192.1224  19.0782   0.6548  21.4513   1.9529  17.8539   0.3727     1.685     1.291 -51.94  8.86     49.27555   0  0.008
        27   6613.7070    199.0435  18.8074   0.5780  19.2250   0.7005  18.7217   0.5561     3.908     2.194  25.95  4.99     48.99252   0  0.015
        28   3093.8301    201.6849  19.3704   0.7493  20.6877   1.3739  19.0514   0.6475     2.304     1.785 -25.95  7.24     49.28287   0  0.001
        29   7029.7554    302.9742  14.9335   0.0971  14.9426   0.0975  14.9167   0.0963     5.542     3.453  81.98  3.50     49.00049   3  0.041
        30   7041.8306    315.6257  16.5194   0.2015  16.6016   0.2092  16.4812   0.1980     7.071     3.022 -78.73  3.50     48.99881   3  0.029
        31   7759.8433    261.3311  19.8972   0.9550  20.9894   1.5786  20.0334   1.0199     1.996     1.365  67.23  6.68     48.99312   0  0.012
        32   6761.7930    284.9413  19.2775   0.7178  20.1958   1.0953  19.0958   0.6609     2.171     1.719  70.03  6.68     48.99262   0  0.116
        33   5846.6743    295.9039  18.9599   0.6201  19.4204   0.7664  18.7890   0.5736     3.450     2.143  20.16  5.25     49.04028   0  0.292
        34   6625.0581    307.9303  19.4665   0.7830  19.8597   0.9382  18.9687   0.6232     2.248     1.720  62.27  5.16     48.99362   0  0.251
        35    452.6727    348.2294  17.8649   0.3745  18.1332   0.4236  17.8339   0.3692     5.299     3.756  23.74  4.43     49.29047   0  0.000
        36   3408.1833    347.6090  18.0854   0.4146  18.7363   0.5593  18.0669   0.4111     5.517     2.875  29.97  5.62     49.24056   0  0.000
        37   2166.8291    342.2778  18.6181   0.5297  18.9256   0.6102  18.4202   0.4839     3.240     2.069  71.68  4.69     49.36872   2  0.117
        38   2174.8083    342.4703  19.1387   0.6733  19.7986   0.9122  18.8291   0.5843     3.099     1.507   6.17  5.84     49.36908   3  0.475
        39   4667.1650    395.1797  17.5609   0.3256  18.2103   0.4390  17.5328   0.3214     5.357     3.812   8.90  5.88      49.1068   0  0.001
        40   6907.0610    382.3348  18.8519   0.5899  19.1500   0.6767  18.7225   0.5563     2.798     2.083  74.52  4.59     48.99476   2  0.705
        41   4883.6040    375.2279  19.9056   0.9586  20.8778   1.4995  19.4854   0.7913     1.826     1.351  58.20  6.59     49.06516   0  0.308
        42   6439.8115    384.5525  18.5425   0.5117  19.1268   0.6695  18.4841   0.4983     4.151     2.371  24.20  5.31      49.0162   0  0.043
        43   6916.0034    384.3763  19.9506   0.9787  20.8310   1.4675  19.3515   0.7438     2.067     1.307  16.88  6.08      48.9949   3  0.077
        44    848.8799    401.3647  20.3168   1.1585  21.1846   1.7270  19.9906   0.9998     1.521     1.248  76.69  6.25     49.32737   0  0.549
        45   4501.9561    445.2436  19.0693   0.6522  19.7400   0.8879  18.9350   0.6136     3.009     1.968 -47.70  5.88     49.10924   0  0.001
        46   3074.0562    444.0749  19.8438   0.9318  21.1081   1.6673  19.8579   0.9402     1.649     1.447  28.32  7.30     49.28214   0  0.551
        47   8017.6147    487.6560  18.0327   0.4046  18.7502   0.5629  18.0098   0.4004     5.523     2.932  32.88  6.00     49.04483   0  0.000
        48   4134.3848    472.9007  19.8602   0.9388  20.9365   1.5406  19.5872   0.8294     1.730     1.464  73.87  6.77     49.16705   0  0.314
        49   8071.5688    486.1716  20.4954   1.2577  22.1960   2.7516  19.4462   0.7771     1.261     0.726  17.33  7.75     49.02961   0  0.536
        50   6517.4185    494.8577  19.4591   0.7805  20.3465   1.1740  19.0640   0.6513     2.126     1.651  59.63  6.65     48.99263   0  0.234
        51   3471.4382    504.9935  18.7118   0.5532  19.8337   0.9271  18.5561   0.5152     2.743     2.097  70.85  7.21     49.24525   0  0.032
        52   2805.1792    517.1135  19.9752   0.9900  21.3193   1.8376  19.6293   0.8458     1.995     1.177  50.07  7.20     49.30251   0  0.582
        53   2185.9189    524.4054  18.6011   0.5257  19.2223   0.6996  18.4956   0.5010     4.431     2.332  21.72  5.66     49.34075   0  0.000
        54    357.1594    521.6800  19.7916   0.9096  21.2425   1.7738  19.0986   0.6618     1.923     1.178 -76.70  7.66     49.27375   0  0.024
        55   2695.3652    523.2222  20.0759   1.0369  21.0795   1.6455  19.6493   0.8536     1.606     1.381 -55.85  6.69     49.30071   0  0.016
        56    384.8037    523.9219  19.4389   0.7733  21.1839   1.7265  18.5416   0.5117     1.831     1.434  27.76  8.04     49.28355   0  0.005
        57    397.3305    541.3781  19.5327   0.8073  21.2463   1.7769  18.6499   0.5380     1.780     1.172  63.16  8.16     49.28991   0  0.052
        58    117.0136    541.3564  20.1146   1.0555  21.1310   1.6849  19.7867   0.9097     1.557     1.220  63.53  6.75     49.24026   0  0.663
        59     48.5181    547.6874  19.4181   0.7658  20.5008   1.2605  18.6761   0.5445     2.120     1.603  47.58  6.98     49.10127   0  0.004
        60   6680.3350    549.1620  20.1066   1.0516  21.6126   2.1034  19.5583   0.8185     1.355     1.167 -49.86  7.82     49.02667   0  0.259
        61   1727.9066    558.3762  20.1054   1.0511  21.4773   1.9763  19.5301   0.8078     1.590     1.065  56.62  7.46       49.363   0  0.009
        62    853.7190    567.5190  19.8836   0.9490  21.0182   1.5996  19.4140   0.7656     1.894     1.262  42.18  6.87     49.30831   0  0.033
        63   2761.9927    707.0480  13.9382   0.0614  13.9514   0.0617  13.9827   0.0626    11.128     8.265  56.63  3.50     49.33033   0  0.029
        64   7185.0610    652.9938  14.7691   0.0900  14.7688   0.0900  14.7589   0.0896     4.744     4.256 -83.36  3.50     48.99186   3  0.140
        65   8262.0625    617.5437  17.5857   0.3293  17.7482   0.3548  17.5474   0.3236     5.853     3.101  19.26  3.94     48.99004   0  0.019
        66   2239.9602    601.1432  20.1797   1.0877  21.1217   1.6777  19.9815   0.9956     1.874     1.163  36.29  6.38     49.32127   0  0.006
        67   1954.4810    633.1426  17.7445   0.3543  18.2769   0.4526  17.7335   0.3525     5.336     4.194  29.31  5.14     49.35964   0  0.000
        68   7633.1421    682.4975  15.0930   0.1045  15.1170   0.1056  15.0596   0.1029     6.378     3.556  84.42  3.50     49.03411   3  0.025
        69   7195.9575    663.4976  16.0737   0.1641  16.3180   0.1836  16.0508   0.1624     6.276     2.537 -87.93  3.50     48.99359   3  0.053
        70   1881.3647    627.9481  18.0174   0.4017  18.3064   0.4588  17.9553   0.3905     4.868     2.988   5.08  4.59     49.35077   0  0.011
        71   1916.9449    691.3398  14.7763   0.0903  14.7765   0.0903  14.7599   0.0896     5.356     3.166 -85.10  3.50     49.33617   3  0.859
        72   7645.5303    697.7893  15.7198   0.1394  15.7582   0.1419  15.6626   0.1358     6.719     3.153 -81.90  3.50     49.03405   3  0.025
        73   1926.4060    701.4464  16.1146   0.1672  16.2641   0.1791  16.0817   0.1647     6.431     3.125 -81.18  3.50     49.32738   3  0.029
        74   7203.2178    653.5430  18.3051   0.4585  18.3713   0.4727  18.1846   0.4340     2.842     2.260  56.36  3.50     48.99388   3  0.983
        75   8327.2139    657.4767  19.1612   0.6804  19.9617   0.9834  19.0248   0.6396     2.499     2.095  85.25  6.28     48.96766   0  0.004
        76   4549.1553    663.0187  19.6815   0.8646  20.5652   1.2984  19.6176   0.8412     2.129     1.619 -89.67  6.30     49.10176   0  0.002
        77   7651.9038    682.3533  18.1557   0.4280  18.2298   0.4429  17.8512   0.3722     3.260     1.325   2.49  3.50     49.03896   3  0.955
        78   1194.1266    683.4697  20.2444   1.1205  22.0146   2.5311  19.8199   0.9238     1.125     0.999  19.37  8.17     49.28088   0  0.129
        79   1737.7563    704.4145  20.4561   1.2352  22.2446   2.8140  20.1865   1.0950     1.084     0.828 -58.27  8.16     49.32062   0  0.487
        80   6524.4673    705.2755  19.6942   0.8698  21.1139   1.6718  19.6075   0.8373     1.917     1.372 -26.51  7.62     48.99623   0  0.008
        81   7953.2627    774.1454  15.0427   0.1021  15.0506   0.1024  15.0255   0.1013     5.514     3.369 -88.01  3.50     49.04204   3  0.302
        82   5144.2378    712.4240  19.0589   0.6490  19.5653   0.8193  19.0599   0.6501     3.262     2.373  25.68  5.02     49.05462   0  0.033
        83    450.3194    724.0437  18.7435   0.5613  19.5365   0.8085  18.6668   0.5422     3.620     2.499  19.42  5.95     49.25607   0  0.000
        84   7962.4160    783.6885  16.1513   0.1701  16.2726   0.1798  16.1085   0.1668     5.495     2.747 -83.03  3.50     49.03981   3  0.056
        85   2244.8796    765.6364  17.3228   0.2917  17.5274   0.3205  17.2372   0.2805     5.772     3.414   2.63  4.50     49.29467   0  0.026
        86   5770.2510    755.3563  20.0397   1.0197  21.1044   1.6645  19.8557   0.9393     1.673     1.389  36.92  6.60     49.03944   0  0.009
        87   1627.4539    761.7272  19.7617   0.8971  20.6450   1.3470  19.4959   0.7952     1.882     1.487  81.91  6.43     49.28816   0  0.154
        88   3984.3943    834.0500  15.0543   0.1026  15.0697   0.1033  15.0348   0.1017     6.233     4.014  83.67  3.50     49.23254   3  0.027
        89   3996.6846    848.7739  16.0141   0.1597  16.0615   0.1632  15.9650   0.1561     7.400     2.931 -80.28  3.50     49.23868   3  0.029
        90   4565.9829    775.5193  20.0271   1.0138  21.3388   1.8542  19.6918   0.8706     1.489     1.245  89.69  7.61     49.09522   0  0.503
        91   6391.7061    788.1980  19.3244   0.7335  20.1017   1.0488  19.1528   0.6785     2.762     1.635  48.89  6.25     49.01403   0  0.002
        92   4930.7158    795.4963  20.5510   1.2905  22.0427   2.5641  20.1495   1.0763     1.036     0.999  82.76  7.77     49.05554   0  0.641
        93   3644.8328    795.7078  19.6421   0.8490  20.1193   1.0574  19.4670   0.7846     2.771     1.591  36.53  4.73     49.22588   0  0.004
        94    780.5785    848.3523  20.1401   1.0680  21.6253   2.1157  19.7551   0.8965     1.522     1.013 -81.39  7.80     49.26162   0  0.086
        95   6762.1016    878.5850  18.5096   0.5039  18.5988   0.5249  18.4021   0.4798     4.207     2.230  75.67  3.77     48.98067   0  0.094
        96   6243.4995    878.4698  20.3639   1.1838  20.7297   1.4006  19.7506   0.8946     1.409     0.973  89.90  6.71     49.02296   0  0.504
        97   6414.3677    869.0162  20.6790   1.3689  21.9321   2.4367  20.9835   1.5875     1.241     0.969  63.98  7.20     49.03135   0  0.541
        98    470.9247    905.8060  20.3224   1.1615  21.7428   2.2333  20.0136   1.0106     1.196     1.191 -26.14  7.38     49.24607   0  0.438
        99   7938.7871    939.1426  18.9831   0.6269  19.9332   0.9706  18.9349   0.6136     3.438     2.134  25.53  6.43      49.0143   0  0.000
       100   5250.9575   1014.7330  14.9664   0.0985  14.9745   0.0989  14.9475   0.0977     5.432     3.713  81.23  3.50     49.09592   3  0.035
       101   3628.8811   1115.6682  14.3712   0.0749  14.4707   0.0784  14.6532   0.0853    16.020    12.328  57.34  3.91     49.51524   0  0.028
       102   5263.5220   1028.2258  16.4858   0.1984  16.5403   0.2034  16.4113   0.1917     6.921     2.755 -80.82  3.50     49.09911   3  0.029
       103   8369.4111   1110.6877  14.5829   0.0826  14.5847   0.0827  14.5722   0.0822     8.151     4.930  57.95  3.50     49.03094   0  0.028
       104   2172.0754    983.1752  19.5403   0.8102  20.6471   1.3484  19.3132   0.7307     2.104     1.530  56.74  6.90     49.25416   0  0.002
       105   6274.2476    990.2960  19.5458   0.8123  20.4250   1.2173  19.6097   0.8382     2.686     1.385  57.00  6.43     49.02818   0  0.006
       106   5143.5679   1062.1176  19.9447   0.9760  20.6604   1.3566  19.5320   0.8085     1.911     1.357  67.33  6.00     49.10319   0  0.521
       107   2316.9602   1067.0519  19.9907   0.9970  21.0068   1.5913  19.6803   0.8660     1.762     1.344  82.73  6.62     49.24764   0  0.114
       108   7885.8359   1068.1650  19.7500   0.8923  21.7883   2.2806  18.9435   0.6160     1.290     1.107  45.16  8.52     49.04793   0  0.096
       109   2070.9751   1143.7365  16.1488   0.1699  16.3744   0.1885  16.1804   0.1724     7.528     5.922   4.64  4.63     49.24963   0  0.027
       110    400.1288   1092.0261  18.8437   0.5879  19.6061   0.8348  18.5472   0.5131     4.613     1.796  46.40  6.13     49.25215   0  0.003
       111   1678.3983   1090.2703  19.9695   0.9873  21.0562   1.6279  19.7917   0.9118     1.832     1.340  59.75  6.65     49.23678   0  0.007
       112   3698.6570   1105.1296  19.4862   0.7903  20.1286   1.0620  18.9277   0.6115     2.949     1.246  73.89  7.06     49.43116   2  0.045
       113   7181.1899   1110.8928  19.9892   0.9963  21.5237   2.0190  19.4767   0.7881     1.437     1.140  65.86  7.88       49.079   0  0.072
       114   2305.7317   1146.0449  18.0815   0.4138  18.3284   0.4635  18.0222   0.4027     5.358     2.750   5.83  4.41     49.27301   0  0.021
       115   7111.2134   1138.5148  19.4950   0.7935  20.4701   1.2428  19.1710   0.6843     2.024     1.629  69.58  6.76     49.07365   0  0.153
       116   4985.3320   1144.4513  19.4252   0.7683  21.4556   1.9566  18.9797   0.6264     1.663     1.278  56.86  8.54     49.14091   0  0.272
       117   7514.8179   1211.6261  14.9043   0.0958  14.8888   0.0951  14.8710   0.0943     5.329     4.674  78.52  3.50     49.07029   3  0.030
       118   8499.5039   1632.0256  12.6449   0.0338  11.3855   0.0189  15.3126   0.1156   483.685    18.031 -89.64  3.50     34.43398  56  0.002
       119   7734.0190   1181.0282  19.9421   0.9749  21.0387   1.6148  19.3613   0.7472     1.593     1.428  32.82  6.91     49.06722   0  0.114
       120   7526.1357   1222.9504  16.4431   0.1945  16.6217   0.2112  16.3851   0.1894     6.002     2.969 -81.82  3.50      49.0695   3  0.029
       121   5881.5610   1207.8110  19.7718   0.9013  20.7597   1.4202  19.2440   0.7077     1.986     1.418  66.74  6.68      49.1072   0  0.133
       122   2842.9963   1226.4778  20.3584   1.1809  21.8322   2.3273  19.9623   0.9868     1.343     0.980  24.53  7.49     49.22518   0  0.178
       123   2281.9954   1232.5227  20.4413   1.2268  22.1416   2.6835  19.7189   0.8816     1.090     0.802 -89.90  8.17     49.27332   0  0.608
       124    250.0180   1233.0354  20.6228   1.3338  22.0829   2.6120  20.4030   1.2109     1.297     0.726  75.36  7.72     49.26107   0  0.639
       125   2176.3433   1248.8512  19.6075   0.8356  20.9231   1.5311  19.0777   0.6554     1.701     1.449  82.38  7.46     49.23915   0  0.181
       126   5334.7329   1271.1764  18.8295   0.5840  19.6950   0.8697  18.7416   0.5612     3.131     2.267  53.96  6.42     49.09377   0  0.003
       127    590.8137   1373.3734  14.7310   0.0884  14.7222   0.0881  14.6810   0.0864     7.802     2.817 -87.04  3.50     49.30507   3  0.028
       128    578.4487   1356.2346  15.1596   0.1077  15.1907   0.1093  15.1144   0.1055     7.744     3.869  89.63  3.50     49.29375   3  0.029
       129   7299.0122   1290.5212  18.1836   0.4337  18.5450   0.5121  18.0914   0.4158     5.676     3.103  37.57  4.74     49.06022   2  0.005
       130   7292.8042   1296.0724  18.8101   0.5788  19.3529   0.7429  18.4993   0.5018     4.041     2.034  53.20  5.34       49.063   3  0.181
       131   5875.9448   1322.7421  19.9871   0.9953  21.1093   1.6682  19.5661   0.8214     1.668     1.287  74.12  6.96     49.12317   0  0.192
       132   1898.9789   1336.3466  18.6845   0.5463  19.3056   0.7269  18.6041   0.5267     3.408     2.779   3.38  5.54     49.20219   0  0.000
       133   6190.4370   1397.0709  15.5201   0.1272  15.5309   0.1278  15.5078   0.1264     5.309     3.804 -38.82  3.50      49.1129   0  0.341
       134   6974.4429   1364.7679  19.9210   0.9654  22.0498   2.5725  19.2993   0.7261     1.230     0.983  60.86  8.74     49.10143   0  0.282
       135   4128.4829   1392.0273  18.4163   0.4828  18.9000   0.6031  18.3707   0.4729     4.189     3.249  48.26  5.27     49.18599   0  0.000
       136   1267.9412   1488.0509  14.7677   0.0899  14.7574   0.0895  14.7182   0.0879     7.878     2.741 -87.43  3.50     49.27823   3  0.023
       137   5849.8394   1393.7885  19.9650   0.9853  21.1644   1.7111  19.4609   0.7824     1.770     1.234  75.78  7.27     49.12582   0  0.012
       138   1255.4398   1473.9807  15.4119   0.1210  15.4573   0.1235  15.3268   0.1163     6.498     3.792  89.51  3.50     49.28419   3  0.031
       139   1157.1394   1413.8030  19.8884   0.9511  21.5015   1.9984  19.7637   0.9001     1.422     1.184 -60.03  8.03     49.22716   0  0.658
       140   1749.7242   1481.0253  15.2868   0.1142  15.2886   0.1143  15.2666   0.1132     6.359     3.333  55.84  3.50     49.19595   2  0.846
       141   4436.2407   1462.3364  15.5006   0.1260  15.5091   0.1265  15.4923   0.1255     5.593     3.491 -28.07  3.50      49.1338   0  0.703
       142   6559.0796   1432.9883  19.6552   0.8542  20.9099   1.5219  19.4539   0.7799     2.007     1.310  45.51  7.37     49.07212   0  0.011
       143   2693.3657   1461.4072  20.0392   1.0194  20.7491   1.4132  19.8071   0.9183     1.883     1.358  68.19  5.98     49.21296   0  0.663
       144   7563.2959   1469.7854  20.0247   1.0127  21.6693   2.1590  19.3743   0.7517     1.536     1.107 -65.88  7.82     49.05831   0  0.078
       145   3095.6431   1638.1641  14.3533   0.0743  14.3911   0.0756  14.4438   0.0775    13.573     8.378  52.78  3.63     49.37772   0  0.029
       146   1763.9905   1477.7250  17.5106   0.3180  17.5143   0.3186  17.3916   0.3012     2.363     1.681  16.85  3.50     49.19413   3  0.982
       147   5078.9229   1551.0068  14.8692   0.0942  14.8666   0.0941  14.8505   0.0934     5.693     3.579  90.00  3.50     49.11306   3  0.088
       148   1819.2388   1505.2140  20.2449   1.1208  21.2537   1.7829  20.4356   1.2294     1.485     1.377  72.99  6.58     49.20191   0  0.604
       149   5089.8921   1563.0923  16.3674   0.1879  16.5093   0.2005  16.3319   0.1848     6.795     3.247 -77.04  3.50     49.11464   3  0.029
       150   6978.4702   1511.1335  20.3430   1.1725  22.0310   2.5503  19.8167   0.9224     1.129     0.991  73.52  7.87     49.07824   0  0.364
       151   7732.0435   1605.8883  14.9600   0.0983  14.9675   0.0986  14.9388   0.0973     6.333     4.137  81.42  3.50     49.12895   3  0.023
       152   3267.5342   1537.6223  19.9657   0.9855  22.3037   2.8916  19.3096   0.7295     1.838     0.560 -64.94  9.03      49.2373   0  0.307
       153   3788.6643   1597.1605  14.9793   0.0991  14.9818   0.0992  14.9689   0.0987     5.229     3.727 -82.52  3.50     49.25523   3  0.119
       154   7744.8945   1621.9747  15.7823   0.1435  15.8128   0.1455  15.7257   0.1398     6.822     3.158 -82.01  3.50     49.12989   3  0.028
       155   7079.4512   1557.6930  19.2082   0.6951  19.6663   0.8583  19.0263   0.6400     2.523     1.763  72.17  5.10     49.08278   3  0.632
       156   3091.0356   1571.5206  17.4489   0.3093  18.1418   0.4253  17.5858   0.3294     6.563     4.026   1.73  6.52     49.34695   0  0.000
       157   6147.0503   1557.7112  18.9765   0.6249  19.9580   0.9817  18.7764   0.5703     2.904     2.138 -31.92  6.54     49.09917   0  0.003
       158   5395.8931   1557.8124  19.7115   0.8766  20.2580   1.1271  19.6860   0.8682     2.188     1.533  75.77  5.75     49.10142   0  0.314
       159   7086.6133   1558.9283  19.1554   0.6786  19.9953   0.9987  19.0805   0.6563     2.741     1.809   2.47  6.24     49.08205   3  0.130
       160    560.1843   1579.9865  17.9898   0.3968  19.9281   0.9683  17.9643   0.3921     4.712     2.140 -47.63  8.34     49.26343   0  0.000
       161   3799.0925   1608.8917  16.2639   0.1791  16.4120   0.1918  16.2302   0.1764     5.736     2.906 -85.87  3.50     49.25722   3  0.031
       162    420.9765   2115.7239  12.0865   0.0262  11.4468   0.0195  14.5793   0.0825   248.128    11.038  -0.21  3.50     22.34586  19  0.001
       163   5493.3911   1592.6429  19.5433   0.8114  20.5367   1.2815  19.4925   0.7939     3.492     1.129  62.65  6.56     49.10448   0  0.002
       164     27.1879   1587.9946  20.0972   1.0470  21.3560   1.8689  99.0000  99.0000     1.298     1.274 -86.70  7.38     49.32969   0  0.605
       165    548.5089   1595.8159  19.0736   0.6534  21.2522   1.7817  18.1907   0.4353     1.701     1.364 -68.47  8.72     49.26196   0  0.008
       166   3806.2856   1598.9735  18.6022   0.5258  18.6739   0.5434  18.4217   0.4842     2.782     2.060  28.43  3.50     49.25596   3  0.979
       167   5579.3818   1668.3555  16.6077   0.2099  16.8391   0.2334  16.6426   0.2133    10.091     4.831  30.92  4.18     49.11255   0  0.010
       168   2658.7151   1634.3633  19.7000   0.8720  21.3015   1.8227  19.2743   0.7177     1.689     1.285  27.36  7.79     49.21021   0  0.006
       169   6843.1348   1658.7334  19.9560   0.9812  21.0042   1.5894  19.9249   0.9698     2.294     1.081  46.49  6.71     49.09167   0  0.001
       170   6043.2617   1658.8330  19.5684   0.8207  20.3165   1.1579  19.0445   0.6454     2.065     1.654  79.15  6.13     49.09956   0  0.334
       171   3900.6936   1833.6777  14.3261   0.0734  14.4434   0.0775  14.6083   0.0836    15.862    12.069  55.98  4.12     49.53378   0  0.028
       172   4886.0317   1699.9023  18.3552   0.4694  18.7759   0.5696  18.2517   0.4477     4.780     2.679   6.98  5.10     49.13483   0  0.020
       173   6301.4585   1712.9984  19.0390   0.6431  19.6779   0.8629  18.7497   0.5633     2.501     1.920  67.90  6.03     49.11516   0  0.410
       174   7306.1509   1710.5046  19.6059   0.8351  20.8322   1.4684  19.5894   0.8303     2.296     1.406  19.24  7.09     49.07037   0  0.001
       175   4195.9868   2076.0850  13.4252   0.0485  12.8251   0.0368  13.6177   0.0530    26.242    20.952  35.34  3.50     3.839813   3  0.045
       176   5224.3716   1807.9211  15.1035   0.1050  15.1223   0.1059  15.0730   0.1035     6.345     3.646  84.82  3.50     49.14016   3  0.027
       177   7007.1792   1805.9866  15.0184   0.1009  15.0131   0.1007  14.9948   0.0998     6.150     3.879  84.27  3.50     49.08827   3  0.017
       178   5236.6426   1822.8955  15.7828   0.1435  15.8130   0.1455  15.7351   0.1404     6.755     2.987 -80.28  3.50     49.13863   3  0.026
       179   4321.7505   2077.8140  13.6273   0.0532  12.9867   0.0396  13.6484   0.0537    25.367    19.728 -47.65  3.50     3.034172   3  0.015
       180   7017.8193   1817.4247  16.3407   0.1856  16.5123   0.2008  16.2943   0.1817     6.542     2.968 -83.37  3.50     49.08717   3  0.029
       181   3975.2791   1779.2487  19.0278   0.6399  19.9012   0.9564  18.7392   0.5606     2.694     2.255 -13.71  6.28       49.373   0  0.004
       182   7704.8242   1794.1703  19.8648   0.9408  21.0823   1.6476  19.6439   0.8515     1.675     1.501  81.08  7.14     49.09376   0  0.008
       183   3834.2502   1797.9739  19.6217   0.8411  20.2383   1.1169  18.6915   0.5484     2.124     1.561  70.17  5.88     49.40476   0  0.463
       184   7984.6782   1807.9429  19.8628   0.9399  20.8250   1.4635  19.6985   0.8733     1.801     1.397  82.82  6.65     49.09336   0  0.226
       185   2500.6646   1813.7523  19.9497   0.9783  20.8187   1.4592  19.4374   0.7739     1.757     1.435  61.44  6.30     49.20638   0  0.235
       186   7316.8423   1839.2195  17.4917   0.3153  17.8228   0.3672  17.4225   0.3055     5.471     3.370  10.55  5.00     49.08561   0  0.020
       187   3361.6838   1827.8229  19.8909   0.9522  21.0907   1.6540  19.7475   0.8934     1.603     1.423 -81.23  7.22     49.23365   0  0.636
       188   4402.0054   1853.0463  18.9717   0.6235  19.4109   0.7631  18.8705   0.5956     2.926     2.300  55.07  5.17     49.13167   0  0.017
       189    100.6034   1850.2441  20.1103   1.0534  20.8598   1.4871  19.6204   0.8423     1.666     1.358  64.66  6.11     49.30846   0  0.694
       190   7035.0659   1851.4114  19.9056   0.9586  21.0510   1.6240  19.4332   0.7724     1.865     1.229  74.82  7.09     49.09103   0  0.031
       191   4198.6353   2215.7363  13.5132   0.0505  12.8650   0.0374  13.6703   0.0543    26.244    20.571 -24.10  3.50     5.368353   3  0.082
       192   5140.7842   1897.8680  20.0740   1.0359  21.8756   2.3742  19.8543   0.9386     1.698     0.762  66.16  8.33     49.12122   0  0.161
       193   4321.5059   2214.9441  13.9316   0.0612  13.1645   0.0430  13.7597   0.0565    25.140    18.751  42.52  3.50     5.295714   3  0.010
       194   1163.5332   1899.2328  19.2708   0.7156  19.9651   0.9849  18.9942   0.6306     2.289     1.797  79.74  6.20     49.20755   0  0.365
       195   7898.4941   1902.2819  20.0514   1.0251  20.7425   1.4089  19.8575   0.9400     1.937     1.263  62.94  5.55     49.09163   0  0.383
       196   4914.1943   1909.2661  19.7453   0.8904  20.3897   1.1976  19.5217   0.8047     1.941     1.714  59.32  5.72     49.12771   0  0.197
       197    298.9744   1922.3854  19.1359   0.6725  19.7165   0.8784  19.1015   0.6627     2.954     2.232  42.46  5.33     49.26888   0  0.052
       198   4316.8745   1949.5211  20.4605   1.2377  21.3870   1.8958  99.0000  99.0000     1.434     1.149  61.19  6.34     49.11967   0  0.374
       199    211.5461   1979.1526  18.8403   0.5870  19.9792   0.9913  18.4911   0.4999     4.264     1.436 -86.93  7.05     49.26509   0  0.001
       200   3274.5337   1962.6990  20.1752   1.0853  22.2585   2.8321  19.7549   0.8964     1.125     0.905  78.78  8.67     49.23486   0  0.467
       201    136.1384   1974.7715  20.0014   1.0019  21.5910   2.0825  18.9947   0.6308     1.482     1.051 -62.40  7.98     49.27266   0  0.298
       202   7435.3374   1980.6008  19.0530   0.6473  19.8069   0.9157  18.9041   0.6049     2.511     2.322  78.83  6.04     49.07592   0  0.003
       203   6313.8027   1982.1248  20.5262   1.2758  21.9770   2.4876  20.1532   1.0782     1.278     0.875  80.64  7.74     49.12957   0  0.508
       204    758.0137   1994.1248  19.0181   0.6370  20.0024   1.0020  18.6611   0.5407     2.587     1.690  84.65  6.88     49.24733   0  0.208
       205    899.7397   2100.9875  15.0777   0.1037  15.1104   0.1053  15.1490   0.1072     6.930     2.010  89.46  3.50     44.00668   3  0.184
       206   7705.3096   2019.5691  19.8962   0.9545  21.2175   1.7534  19.2195   0.6998     2.230     1.033  32.95  7.17     49.06667   0  0.008
       207    887.5070   2084.8982  15.1596   0.1077  15.1815   0.1088  15.2023   0.1099     5.950     3.458  87.03  3.50     47.86105   3  0.031
       208   3818.4431   2026.8452  20.2998   1.1494  22.2210   2.7835  19.7728   0.9039     1.071     0.917  15.28  8.21     49.24686   0  0.466
       209   7699.3999   2056.1970  18.5150   0.5052  19.1108   0.6646  18.3562   0.4698     3.518     2.367  27.09  5.99     49.06192   0  0.214
       210   3722.2466   2045.0016  20.1495   1.0726  21.7096   2.1995  20.0851   1.0446     1.776     0.844  36.51  7.94     49.22955   0  0.035
       211    392.3899   2176.3186  99.0000  99.0000  12.4176   0.0305  15.4797   0.1248   227.935    13.570  -0.00  0.00   0.04026412  25  0.053
       212   2322.0098   2065.4707  19.9924   0.9977  20.7611   1.4210  19.0449   0.6456     1.754     1.495  55.07  6.07     49.16622   0  0.205
       213   2951.0046   2073.1377  19.0690   0.6521  19.7471   0.8909  18.9740   0.6248     3.360     1.993  26.31  5.67     49.22026   0  0.000
       214   8510.4648   2216.9648  99.0000  99.0000  15.1666   0.1081  16.0258   0.1605    16.599     9.900  73.14  0.00     28.53394  17  0.015
       215   6291.6851   2078.9829  19.9694   0.9872  21.8100   2.3035  99.0000  99.0000     1.312     1.028 -88.88  8.44     49.12068   0  0.053
       216   2309.8357   2079.3665  19.7424   0.8893  21.2027   1.7416  19.0951   0.6607     1.899     1.356 -56.76  7.56     49.15601   0  0.007
       217    463.0668   2228.6184  11.2557   0.0178  11.0466   0.0162  14.2065   0.0694   252.314    13.631  -0.43  3.50     15.45361  27  0.002
       218   1165.4822   2228.9062  16.8041   0.2297  15.3154   0.1157  15.2041   0.1099    11.719     7.240  66.84  3.50     48.98182   3  0.028
       219   1175.1580   2237.3428  16.1195   0.1676  16.2578   0.1786  15.8695   0.1494    10.462     3.846 -82.67  3.50     49.05916   3  0.028
       220   6189.9204   2203.5564  15.0747   0.1036  14.6630   0.0857  16.0689   0.1637     7.282     4.673  50.79  3.50     49.05803   0  0.025
       221    274.3910   2270.4834  14.5842   0.0826  14.5839   0.0826  14.6167   0.0839     9.213     4.724  53.57  3.50     47.08388   3  0.029
       222   2152.2983   2285.3643  15.0722   0.1035  15.0642   0.1031  15.0434   0.1021     5.482     4.192  86.69  3.50     49.31002   3  0.022
       223   8377.0713   2236.0632  19.2832   0.7197  21.0552   1.6272  18.2726   0.4520     2.306     1.166 -86.80  7.98     48.95981   0  0.001
       224   7485.1812   2244.7249  20.3608   1.1822  21.4868   1.9849  19.3969   0.7596     1.364     1.168 -87.68  6.86     49.09041   0  0.570
       225   2162.8687   2296.3225  16.2902   0.1813  16.4658   0.1966  16.2600   0.1788     6.337     3.182 -78.37  3.50     49.31895   3  0.029
       226   1297.6959   2320.7419  14.6494   0.0852  14.6469   0.0851  14.6391   0.0848     6.519     4.461  57.51  3.50     49.37648   2  0.016
       227   7342.2437   2251.5737  20.2631   1.1301  22.3354   2.9341  19.3626   0.7476     1.089     0.833 -57.22  8.62     49.11537   0  0.123
       228   8262.3789   2262.6807  19.9569   0.9815  20.8876   1.5063  19.1173   0.6675     1.634     1.399  77.07  6.66     49.11621   0  0.407
       229   7913.5269   2271.4539  19.6203   0.8406  20.3616   1.1823  19.3961   0.7593     2.215     1.737  70.45  6.00      49.1557   0  0.002
       230   3922.3818   2272.7778  19.7205   0.8802  21.9641   2.4730  18.2798   0.4535     1.738     0.662   0.67  8.87     49.31738   0  0.470
       231    923.2464   2277.8728  20.2675   1.1323  20.8075   1.4517  20.3044   1.1566     1.812     1.277  61.95  4.79     49.35899   0  0.641
       232   2242.1794   2290.5593  20.1851   1.0904  21.4332   1.9365  19.8727   0.9467     1.390     1.218 -73.89  7.22     49.31202   0  0.169
       233   3882.5093   2318.4885  20.4619   1.2385  22.0316   2.5510  20.1592   1.0812     1.180     0.864  44.44  7.82     49.32455   0  0.371
       234   1313.9927   2320.1350  18.4347   0.4867  18.4815   0.4973  18.3065   0.4591     2.055     1.480   5.66  3.50     49.36858   3  0.975
       235   2716.9817   2343.3665  17.6189   0.3344  18.1278   0.4226  17.5632   0.3259     5.341     3.628  -1.70  5.54     49.34987   0  0.010
       236   4217.0771   2356.9949  18.1154   0.4202  18.5026   0.5022  99.0000  99.0000     5.770     3.746  19.25  3.50     49.24765   0  0.000
       237    264.6458   2352.7622  17.9365   0.3871  19.3985   0.7587  17.7355   0.3529     3.710     2.107  36.51  7.93     49.40672   0  0.000
       238   4181.1064   2349.9014  18.9819   0.6264  21.2829   1.8071  18.2337   0.4440     2.619     1.013  36.05  8.75     49.25837   0  0.037
       239   4340.0918   2364.9458  19.0498   0.6463  21.3057   1.8262  17.9222   0.3846     1.694     1.377  -5.36  8.78     49.23978   0  0.002
       240   5724.7026   2380.7979  20.4684   1.2423  22.0655   2.5911  20.1983   1.1010     1.254     0.830  39.98  7.78     49.21556   0  0.512
       241   2244.0720   2442.0090  17.2024   0.2760  17.5452   0.3232  17.2551   0.2828     9.317     2.703  40.41  4.81      49.3631   0  0.013
       242   1252.0583   2406.8647  19.6196   0.8404  20.5708   1.3018  19.5426   0.8125     2.077     1.698  87.22  6.57     49.38406   0  0.001
       243    386.0298   2437.0859  20.0877   1.0425  21.7142   2.2041  99.0000  99.0000     1.283     1.165 -24.07  8.20     49.39922   0  0.048
       244   1124.4551   2446.3181  20.2305   1.1133  21.9797   2.4907  19.7857   0.9093     1.258     0.883  57.63  8.34     49.38527   0  0.540
       245   4914.7207   2449.8110  19.9180   0.9641  20.8186   1.4592  19.5752   0.8248     1.814     1.379  66.51  6.48     49.23926   0  0.253
       246    415.1284   2471.3713  18.7399   0.5604  19.2558   0.7105  18.6045   0.5268     3.532     2.007  56.07  6.17     49.39794   2  0.001
       247   3181.0776   2524.3750  17.1345   0.2675  17.4589   0.3106  17.1895   0.2744     8.578     4.507  25.39  4.80     49.34651   0  0.000
       248   2890.6733   2513.0264  18.2191   0.4409  18.7897   0.5732  18.2013   0.4374     4.444     3.430  27.23  5.32     49.32794   0  0.000
       249   5141.0063   2501.2568  19.0966   0.6604  19.9941   0.9981  18.8664   0.5945     2.168     2.064  66.05  6.70     49.24671   0  0.147
       250   2603.7666   2555.8325  15.0012   0.1001  15.0030   0.1002  14.9954   0.0999     5.946     3.792 -29.97  3.50     49.32943   0  0.802
       251   5025.6992   2560.4949  19.7201   0.8801  20.4123   1.2102  19.3703   0.7503     2.093     1.467  76.06  5.95     49.25886   0  0.248
       252    785.1449   2571.5693  18.6679   0.5421  19.4243   0.7678  18.6217   0.5310     3.784     2.535  36.87  5.81     49.36851   0  0.002
       253   6118.0352   2580.8127  19.7300   0.8842  20.8552   1.4840  19.7415   0.8909     1.927     1.599  64.89  6.82     49.20664   0  0.002
       254   1073.9055   2586.0530  19.3372   0.7378  20.1898   1.0923  19.0030   0.6332     2.059     1.738  75.39  6.56     49.38052   0  0.327
       255   2291.3350   2587.2642  20.1969   1.0963  21.6857   2.1754  19.8392   0.9321     1.477     1.112 -51.60  7.45     49.36405   0  0.060
       256   3796.4121   2608.6829  19.7039   0.8736  20.5667   1.2994  19.5229   0.8052     1.968     1.657 -47.23  6.81     49.28095   2  0.001
       257   6547.2173   2627.6802  19.3489   0.7419  20.5747   1.3041  19.0891   0.6589     2.096     1.738 -63.29  7.33     49.19485   0  0.005
       258   7927.5718   2666.3552  17.7437   0.3541  18.1022   0.4176  17.5961   0.3309     4.400     2.793  78.71  4.94     49.16838   2  0.082
       259   1192.8236   2649.8547  20.2220   1.1091  21.8367   2.3320  19.6400   0.8500     1.292     1.103 -43.99  7.83     49.36811   0  0.031
       260   7934.6802   2665.4546  18.2236   0.4417  18.9841   0.6269  17.8782   0.3769     4.219     1.449   4.64  5.80     49.16799   3  0.894
       261   5264.7334   2664.6145  19.7868   0.9076  21.5371   2.0315  19.5030   0.7978     1.650     1.103 -89.43  8.41     49.21599   0  0.007
       262   8461.3281   2876.7473  13.6251   0.0531  13.6537   0.0538  13.8751   0.0596    16.299    12.315  71.00  3.50     49.29949  16  0.029
       263   6157.9321   2708.7253  18.6150   0.5290  19.0564   0.6481  18.5718   0.5189     3.990     2.319  16.80  4.98     49.23882   0  0.304
       264   2819.4841   2710.9731  20.0604   1.0294  20.8199   1.4600  19.6366   0.8486     1.607     1.356 -61.10  6.10     49.36234   0  0.578
       265   5504.1157   2712.7681  19.1353   0.6724  19.9539   0.9799  19.0117   0.6357     2.573     2.441  86.49  6.10     49.19466   0  0.000
       266   1477.5441   2712.0969  19.5900   0.8289  20.3907   1.1982  19.3621   0.7474     2.243     1.579  65.10  6.26     49.36454   0  0.029
       267   4609.5874   2761.0825  17.3169   0.2909  17.4842   0.3142  17.2719   0.2850     5.716     3.798   1.84  4.29     49.29796   0  0.024
       268   2560.1973   2747.9739  20.1328   1.0644  21.2429   1.7740  19.7987   0.9148     1.592     1.221 -89.76  6.88     49.35902   0  0.403
       269   2876.5964   2752.8755  20.1414   1.0686  21.5534   2.0467  19.9130   0.9645     1.376     1.113 -85.77  7.82     49.35985   0  0.657
       270   4629.3809   2801.1992  17.1737   0.2724  17.3143   0.2905  17.1032   0.2637     5.482     3.668  -0.10  4.04     49.32385   0  0.028
       271   2273.6936   2787.1482  18.6997   0.5501  19.1513   0.6771  18.6228   0.5313     3.245     2.375  88.64  6.02     49.33921   2  0.001
       272    951.7330   2853.1079  15.2151   0.1105  15.2287   0.1112  15.1891   0.1092     6.143     3.766  79.21  3.50     49.41705   3  0.026
       273   5099.3931   2828.2971  16.5516   0.2045  16.7488   0.2239  16.5119   0.2008     6.580     4.530  11.46  4.52      49.2596   0  0.028
       274   6092.0464   2967.3354  13.9702   0.0623  14.0149   0.0636  14.2467   0.0707    17.043    11.474  73.97  3.62     49.38831   0  0.029
       275    964.3873   2867.5862  16.1153   0.1673  16.1507   0.1700  16.0566   0.1628     7.098     2.744 -81.62  3.50     49.41558   3  0.029
       276   1403.8375   2869.3394  15.0254   0.1013  15.0305   0.1015  14.9899   0.0996     6.407     3.367  85.84  3.50     49.39655   3  0.019
       277   2743.9202   2803.6841  20.5129   1.2680  22.3023   2.8897  20.5158   1.2761     1.081     0.863 -54.74  8.18     49.35521   0  0.270
       278   1415.6296   2883.4316  16.0245   0.1604  16.0816   0.1647  15.9669   0.1562     7.029     3.073 -80.93  3.50     49.40098   3  0.029
       279   2846.5752   2837.1606  18.8541   0.5907  19.9288   0.9686  18.7273   0.5575     2.560     2.015  54.46  7.16        49.37   0  0.031
       280   4624.3682   2856.9585  17.5456   0.3232  17.7310   0.3520  17.4492   0.3093     5.447     2.927   9.38  4.40     49.32344   0  0.026
       281    248.4362   2881.7585  17.0150   0.2532  17.1790   0.2730  16.9777   0.2489     6.029     4.237 -22.99  4.08     49.41336   0  0.026
       282    457.9916   2879.3794  17.8371   0.3697  18.1372   0.4244  17.7572   0.3564     5.207     3.283   7.19  4.74     49.40707   0  0.014
       283   2282.0193   2869.7898  18.8781   0.5971  19.2742   0.7165  18.7204   0.5558     2.865     2.143  85.87  5.08     49.33535   2  0.233
       284    509.0778   2892.1191  17.7342   0.3526  17.8879   0.3784  17.6778   0.3436     4.897     3.597  -8.56  3.95     49.39935   0  0.023
       285   2289.8499   2871.4065  19.3813   0.7530  20.4858   1.2518  19.1580   0.6802     2.217     1.603  16.94  6.84     49.33257   3  0.041
       286   6766.4316   2904.6094  18.0762   0.4127  18.6893   0.5473  17.8900   0.3789     4.255     2.221  74.29  5.70     49.19028   2  0.351
       287   6774.6968   2904.9836  18.1066   0.4186  18.8471   0.5886  17.8868   0.3784     3.950     2.269   3.53  6.05     49.18914   3  0.162
       288   7220.0386   2906.2986  19.5450   0.8119  20.2233   1.1093  19.2200   0.6999     2.417     1.544  71.97  5.97     49.18621   0  0.101
       289   1349.0319   2980.4338  16.3919   0.1900  16.5344   0.2029  16.3699   0.1881     6.542     5.579   9.44  4.15     49.39694   0  0.028
       290   7735.3608   2931.6875  20.1261   1.0611  21.8211   2.3154  19.8247   0.9258     1.489     0.963 -73.77  7.93      49.1664   0  0.089
       291   1322.7117   2947.2612  19.6177   0.8395  20.4286   1.2193  18.9689   0.6233     2.028     1.518  79.64  6.25     49.39431   0  0.278
       292   4498.4336   3265.1016  14.3819   0.0753  14.5446   0.0811  14.8471   0.0933    17.204    14.668  51.30  4.17     49.53036   2  0.000
       293   2225.4751   3084.7183  15.2461   0.1121  15.2568   0.1126  15.2125   0.1104     6.015     3.340  86.32  3.50     49.37452   3  0.021
       294   1158.9370   3048.7229  16.8925   0.2393  17.0822   0.2611  16.7941   0.2287     6.233     3.486  11.58  4.56     49.40234   0  0.028
       295    226.4798   3020.6909  19.6462   0.8505  20.0691   1.0332  19.3386   0.7394     2.125     1.564  77.82  5.26     49.41112   0  0.645
       296   2480.2664   3024.5513  20.1511   1.0733  21.7186   2.2085  19.3309   0.7367     1.208     1.076  50.08  7.90     49.32354   0  0.548
       297   2237.2749   3098.7996  16.1166   0.1674  16.1517   0.1701  16.0717   0.1640     7.145     3.085 -81.84  3.50     49.37457   3  0.029
       298   8134.4033   3042.6177  20.4653   1.2405  21.9197   2.4229  20.0503   1.0279     1.120     0.981  43.38  7.75     49.17292   0  0.520
       299   1130.9821   3067.5396  18.8305   0.5843  19.6442   0.8496  18.4183   0.4834     2.902     2.558  31.28  6.27     49.39889   0  0.001
       300    308.0579   3116.1804  17.0471   0.2569  17.2736   0.2852  16.9930   0.2506     5.369     4.434  -8.48  4.58     49.41312   0  0.027
       301   2341.6699   3090.1804  19.8558   0.9369  20.6068   1.3235  19.4623   0.7829     1.900     1.320  69.22  6.35     49.35102   0  0.744
       302   8399.0771   3090.8623  20.7677   1.4258  21.9565   2.4643  19.5499   0.8153     1.308     0.774  82.81  6.85     49.14464   0  0.535
       303   8373.0654   3100.5337  19.3921   0.7568  20.6143   1.3282  19.1268   0.6705     2.529     1.387  44.36  7.29      49.1599   0  0.001
       304   3336.4216   3115.5852  19.2427   0.7065  20.3599   1.1814  18.9580   0.6202     3.852     1.384 -70.46  6.72     49.31596   0  0.000
       305   8164.4297   3116.8308  19.2619   0.7127  20.1244   1.0599  19.1232   0.6693     2.633     1.658  47.80  6.54     49.17384   0  0.024
       306   1533.9822   3120.7466  20.0350   1.0175  20.9680   1.5631  19.8944   0.9562     2.029     1.242  57.05  6.42     49.37977   0  0.023
       307   5107.4731   3176.8818  15.3379   0.1169  15.3413   0.1171  15.3178   0.1159     6.654     3.154  56.18  3.50     49.23759   2  0.842
       308   1606.5392   3136.3171  19.8195   0.9214  21.0377   1.6141  19.6628   0.8590     1.616     1.345  43.60  7.37     49.38279   0  0.513
       309   1293.9122   3180.6606  16.7898   0.2282  16.9364   0.2441  16.7506   0.2241     5.692     5.115  -8.17  4.03     49.39302   0  0.026
       310   7265.3877   3144.2896  20.1786   1.0871  21.2193   1.7548  19.8517   0.9375     1.507     1.287  74.09  6.78     49.20855   0  0.632
       311   8020.8174   3220.4106  15.3089   0.1154  15.3539   0.1178  15.2729   0.1135     6.374     3.829  84.33  3.50     49.21704   3  0.028
       312   8033.0054   3235.8994  15.5370   0.1282  15.5493   0.1289  15.4981   0.1259     7.529     2.885 -83.06  3.50     49.22023   3  0.025
       313   1562.3938   3183.3672  17.9988   0.3983  18.2942   0.4563  18.0030   0.3992     5.251     3.532  33.90  4.05      49.3955   0  0.000
       314   3327.1965   3201.1160  17.7884   0.3615  18.1309   0.4232  17.7649   0.3577     4.903     4.271  19.86  4.67     49.30467   0  0.000
       315   6508.3989   3170.4604  18.8016   0.5764  19.2599   0.7118  18.4825   0.4980     2.743     2.108  42.09  5.42      49.2022   2  0.582
       316   5122.4048   3174.1882  17.3820   0.2997  17.3798   0.2994  17.2942   0.2879     2.279     1.857  20.37  3.50      49.2377   3  0.982
       317   6517.3325   3172.3967  19.7159   0.8784  20.8736   1.4966  18.9645   0.6220     1.921     1.298  24.55  6.84     49.20333   3  0.482
       318   2771.7112   3188.2329  18.7016   0.5505  18.9654   0.6215  18.6481   0.5375     4.387     2.310   8.72  4.32     49.33455   0  0.406
       319   6884.1040   3188.7832  18.6248   0.5315  19.7141   0.8774  18.5533   0.5145     3.261     2.424  36.78  6.88     49.23376   0  0.001
       320   4456.1763   3278.3762  15.1348   0.1065  15.1622   0.1078  15.0735   0.1035     5.934     3.642  87.24  3.50     49.45987   3  0.024
       321   1712.0210   3276.9961  15.1137   0.1055  15.1192   0.1057  15.0951   0.1046     5.849     3.777  86.54  3.50     49.41756   3  0.020
       322   2239.3372   3212.9380  20.4599   1.2373  22.1152   2.6511  20.0183   1.0128     1.068     0.857  33.69  7.91     49.32574   0  0.499
       323   1951.8254   3218.6230  19.0980   0.6609  19.8690   0.9423  18.8335   0.5855     2.703     1.809  83.70  6.34     49.38493   0  0.132
       324   1608.2362   3245.0435  18.8481   0.5889  19.2218   0.6994  18.6615   0.5408     2.955     2.109  78.02  5.11     49.43593   2  0.181
       325   1723.5087   3289.7561  16.3190   0.1837  16.3983   0.1905  16.2728   0.1799     6.547     3.056 -80.33  3.50     49.41481   3  0.029
       326   4468.0347   3291.4180  16.3445   0.1859  16.4290   0.1933  16.1981   0.1738     6.535     2.628 -87.33  3.50       49.477   3  0.029
       327   1616.5048   3246.4084  19.6965   0.8706  20.6217   1.3326  19.2123   0.6975     2.184     1.461  17.80  6.17     49.43566   3  0.191
       328    502.5013   3247.6162  20.0429   1.0212  20.9951   1.5827  19.5534   0.8166     1.576     1.566 -56.19  6.33     49.40072   0  0.003
       329   4087.3147   3305.8298  15.2932   0.1145  15.3111   0.1155  15.2672   0.1132     5.041     4.848  69.91  3.50     49.30608   3  0.022
       330   1576.7770   3329.6890  15.9043   0.1518  16.0220   0.1602  15.9005   0.1515     7.662     5.294  34.08  4.22     49.43684   0  0.028
       331   1537.2621   3289.9146  18.0571   0.4092  18.3908   0.4770  17.9522   0.3899     4.818     3.319   9.08  4.97     49.41656   0  0.001
       332   4096.8486   3316.5583  16.3297   0.1846  16.3946   0.1902  16.2857   0.1809     5.114     2.657 -73.21  3.50     49.30571   3  0.057
       333   1499.0599   3301.0930  19.3587   0.7451  20.0387   1.0188  19.1163   0.6672     2.358     1.707  56.39  6.10      49.3868   0  0.252
       334   5242.0024   3405.5745  14.5482   0.0813  14.5301   0.0806  14.5252   0.0804     7.940     5.243  85.41  3.50      49.2763   3  0.031
       335   5358.8379   3336.6792  18.4257   0.4848  18.8711   0.5951  18.2224   0.4417     3.380     2.375  75.54  5.18     49.25731   2  0.328
       336   5367.4238   3336.7437  18.6359   0.5341  19.4159   0.7648  18.4120   0.4820     3.647     1.777  12.67  6.15      49.2572   3  0.229
       337   1932.3790   3362.0288  18.2703   0.4514  19.1159   0.6661  18.0861   0.4148     3.119     2.413  82.07  7.16      49.4301   2  0.078
       338   5894.8394   3353.4424  19.9768   0.9906  21.1265   1.6815  19.4583   0.7814     1.582     1.297  64.28  6.93     49.27419   0  0.617
       339   3780.1663   3377.7439  18.2128   0.4395  18.4905   0.4994  18.0457   0.4071     3.920     2.443  72.98  4.45     49.28327   2  0.378
       340   5253.1348   3420.6638  16.4992   0.1996  16.6704   0.2160  16.4486   0.1950     6.574     2.692 -80.63  3.50     49.27678   3  0.029
       341   3787.3462   3377.9326  18.2445   0.4460  18.9175   0.6079  18.1147   0.4203     4.752     1.921   7.87  5.02     49.28396   3  0.409
       342   2516.9319   3459.6770  15.0387   0.1019  15.0207   0.1010  15.0079   0.1004     5.554     4.749  88.36  3.50     49.35462   3  0.021
       343    269.8122   3426.0774  17.5533   0.3244  17.8893   0.3786  17.3643   0.2974     4.206     2.622  76.06  4.74     49.42686   3  0.244
       344   7532.8389   3412.7412  18.9763   0.6248  19.4418   0.7740  18.8812   0.5986     3.457     2.146  20.05  4.99     49.25217   0  0.150
       345   7338.0156   3419.9836  19.7235   0.8815  21.6854   2.1751  19.4050   0.7624     1.251     1.246  47.86  8.71     49.24477   0  0.010
       346    276.2459   3426.7114  17.2456   0.2815  17.9521   0.3897  17.1321   0.2672     5.443     2.365  10.33  5.07     49.42629   3  0.034
       347   3737.0339   3435.0532  18.8750   0.5964  19.5169   0.8012  18.8308   0.5848     3.897     2.099  36.06  5.51     49.29517   0  0.000
       348   2528.2864   3470.7131  16.4558   0.1957  16.6641   0.2154  16.4040   0.1911     6.472     2.914 -81.55  3.50      49.3577   3  0.029
       349   8229.3320   3439.9216  19.6086   0.8362  21.0697   1.6381  19.4768   0.7882     2.279     1.262  40.66  7.63     49.20039   0  0.001
       350   7804.4233   3461.9077  19.2063   0.6946  19.7124   0.8767  19.0672   0.6522     2.935     1.560  65.90  6.11     49.25651   2  0.087
       351    542.9767   3470.0249  18.6106   0.5280  19.5881   0.8280  18.4280   0.4856     3.580     2.138  15.37  6.72       49.374   0  0.084
       352   5375.6938   3512.2957  15.6542   0.1353  15.6630   0.1358  15.6305   0.1338     5.188     3.865 -43.77  3.50     49.25079   0  0.160
       353   1754.0458   3493.2563  20.1445   1.0701  20.8346   1.4700  19.8874   0.9531     1.900     1.239  83.39  5.81     49.39662   0  0.171
       354   3344.1265   3525.5049  17.6372   0.3372  18.0001   0.3985  17.5420   0.3228     5.476     3.446   0.31  4.99     49.29661   0  0.013
       355   1589.8069   3531.4204  17.6625   0.3411  18.0322   0.4044  17.5432   0.3229     4.527     2.943  77.33  4.79     49.38816   3  0.065
       356    122.5036   3511.7041  19.4197   0.7664  20.1318   1.0635  19.3398   0.7398     3.055     1.454  61.70  5.95     49.47833   0  0.002
       357   1380.6265   3553.2344  17.5063   0.3175  17.7784   0.3598  17.4898   0.3151     5.774     4.412  -6.69  4.22     49.38023   0  0.000
       358    642.5334   3559.7434  15.2316   0.1113  15.2325   0.1114  15.2110   0.1103     5.344     3.853 -47.87  3.50     49.40458   0  0.763
       359   4915.7163   3524.3599  19.4565   0.7796  20.5093   1.2655  19.2634   0.7141     2.011     1.879 -20.46  6.72     49.24519   0  0.001
       360   7535.4956   3812.9275  12.7202   0.0350  12.8651   0.0374  14.4753   0.0786   101.497    25.318   0.15  3.50     51.56598   2  0.000
       361   1596.1859   3531.5933  17.7238   0.3509  18.4932   0.5000  17.5776   0.3281     5.224     2.103   8.40  5.31     49.38945   3  0.049
       362   1777.6298   3540.0764  18.7463   0.5620  19.2679   0.7144  18.6451   0.5368     3.847     2.424  10.11  5.24     49.39018   0  0.080
       363    200.1371   3543.5269  20.3231   1.1618  22.1654   2.7132  19.9866   0.9980     1.077     0.915  73.62  8.32     49.44376   0  0.302
       364   6328.4932   3567.8870  19.8612   0.9392  21.1476   1.6979  19.2452   0.7081     1.615     1.389 -78.97  7.25     49.23602   0  0.018
       365   8010.8794   3596.3687  20.0930   1.0451  21.1333   1.6868  19.8222   0.9248     1.725     1.374 -56.71  6.47     49.21647   0  0.002
       366   1159.4917   3610.2566  19.0362   0.6423  20.2434   1.1196  18.7553   0.5648     2.392     1.454 -84.28  8.25     49.36109   2  0.002
       367   7713.4238   3619.5469  19.9939   0.9984  21.6803   2.1700  18.8457   0.5888     1.480     1.049  24.92  8.13     49.32185   0  0.021
       368    663.4449   3625.7383  18.8103   0.5787  19.1364   0.6724  18.5734   0.5193     2.886     2.110  56.68  4.70     49.40142   2  0.333
       369    608.8875   3625.0710  19.1754   0.6849  19.8913   0.9520  19.0882   0.6586     2.516     2.351  49.89  5.88     49.40596   0  0.005
       370   2579.8208   3625.4976  19.5271   0.8053  20.1884   1.0916  19.1374   0.6737     2.241     1.804  73.76  5.93     49.34259   0  0.101
       371     23.3520   3633.2356  18.7769   0.5700  19.4495   0.7767  18.6929   0.5487     3.390     2.060  52.61  6.03     49.57026  16  0.116
       372    673.0542   3627.1589  20.0150   1.0081  21.2597   1.7878  19.3608   0.7470     1.824     1.075  18.46  6.76     49.40041   3  0.636
       373   3987.8040   3709.4155  15.1910   0.1093  15.2077   0.1101  15.1668   0.1081     6.045     3.983  85.44  3.50     49.32356   3  0.027
       374   4958.3618   3660.1003  18.2373   0.4446  18.6851   0.5463  18.2017   0.4375     4.674     3.402  15.61  4.73     49.24293   0  0.000
       375   2013.7383   3727.6436  15.1413   0.1068  15.1606   0.1078  15.1075   0.1052     7.061     3.692  86.53  3.50     49.39889   3  0.029
       376   4000.3027   3723.9399  16.1493   0.1699  16.1790   0.1722  16.0960   0.1658     6.923     2.743 -80.51  3.50     49.32883   3  0.029
       377   2025.8693   3744.1702  16.1652   0.1712  16.2359   0.1768  16.1188   0.1675     7.900     3.514 -79.72  3.53     49.39491   3  0.029
       378   6560.0625   3683.5176  18.1382   0.4247  18.4652   0.4936  18.0751   0.4127     5.542     2.836  21.39  4.37      49.2251   0  0.000
       379   7274.7046   3681.4753  20.1781   1.0868  21.9377   2.4430  19.7732   0.9040     1.277     0.972 -55.50  8.13     49.35372   0  0.392
       380   2695.5544   3715.6096  19.7942   0.9107  20.8074   1.4517  19.3407   0.7401     1.844     1.425  78.04  6.88     49.36962   0  0.150
       381   8239.6357   3793.6072  14.9668   0.0986  14.9753   0.0989  14.9447   0.0976     6.902     3.957  86.90  3.50     49.23932   3  0.027
       382   1077.8890   3735.5120  19.6724   0.8611  20.7367   1.4052  19.3882   0.7565     1.907     1.643  86.83  6.77     49.37477   0  0.002
       383   7373.1157   3811.7261  15.5076   0.1264  15.5518   0.1290  15.4804   0.1249     7.588     4.948  21.26  3.50     49.81279   3  0.868
       384   1443.4595   3743.3904  19.2324   0.7032  20.5877   1.3120  18.8608   0.5930     2.879     1.583 -27.23  7.26     49.38798   0  0.001
       385   8251.4912   3808.8528  15.9774   0.1570  16.0446   0.1619  15.9409   0.1544     7.347     2.972 -80.04  3.50     49.23419   3  0.029
       386   3169.2271   3760.0911  18.2756   0.4524  18.4201   0.4835  18.2497   0.4473     4.602     2.626  13.50  3.74     49.28679   0  0.011
       387   1443.9636   3824.0928  16.2299   0.1763  16.4859   0.1984  16.2418   0.1773     7.065     5.108 -80.86  4.79     49.41339   0  0.029
       388   6008.8364   3769.7090  19.4527   0.7780  19.7679   0.8994  19.1984   0.6930     2.418     1.719  71.23  4.57     49.23694   2  0.169
       389   6016.5825   3771.3313  19.9606   0.9832  21.0398   1.6157  19.5961   0.8329     2.165     1.113  11.17  6.46     49.23639   3  0.110
       390   5476.6377   3774.2544  19.8576   0.9376  20.6252   1.3348  18.9610   0.6210     1.875     1.527  72.39  6.09     49.22573   0  0.090
       391     53.6913   3781.9045  20.0616   1.0301  21.2324   1.7655  19.6437   0.8514     1.565     1.346  61.98  7.01     49.47935   0  0.128
       392    185.5679   3796.4812  18.9133   0.6069  19.3381   0.7379  18.8889   0.6007     3.352     2.221  13.72  4.90     49.44536   0  0.169
       393   2813.9612   3811.4070  20.0373   1.0186  20.9657   1.5615  19.6078   0.8374     1.724     1.296  35.08  6.56     49.37077   0  0.586
       394   5240.7036   3829.2385  19.4660   0.7829  20.3032   1.1508  19.1626   0.6816     2.253     1.629  81.15  6.40     49.24966   0  0.226
       395   3217.9375   3883.2104  17.2345   0.2801  17.4733   0.3126  17.2081   0.2767     6.049     4.846  86.70  4.41     49.29204   0  0.020
       396   1926.8511   3844.4985  20.2534   1.1252  21.6779   2.1675  20.1107   1.0571     1.657     0.944  74.35  7.43     49.39193   0  0.554
       397    547.9533   3845.3547  19.9231   0.9664  21.2865   1.8101  19.5883   0.8299     1.515     1.372 -74.39  7.43     49.40713   0  0.020
       398   6663.0205   3965.4424  15.3430   0.1172  15.3447   0.1173  15.2993   0.1149     7.160     2.875 -84.16  3.50     49.26543   3  0.021
       399    817.6962   3873.0842  19.4498   0.7771  20.2373   1.1164  19.3444   0.7413     2.143     1.928  61.74  6.15      49.4036   0  0.007
       400    212.5993   3953.2178  14.7312   0.0884  14.7119   0.0876  14.7022   0.0873     5.380     4.511 -88.22  3.50     49.46712   3  0.100
       401   6650.4224   3951.8066  15.5690   0.1301  15.6401   0.1344  15.5213   0.1272     5.658     4.497  52.63  3.50     49.27296   3  0.028
       402    891.3182   3911.6584  18.8166   0.5806  19.4005   0.7594  18.7227   0.5563     3.657     2.523   4.20  5.39     49.40739   0  0.011
       403     79.9803   3932.7024  18.4560   0.4917  19.0086   0.6340  18.3961   0.4785     4.910     2.431  31.34  5.36      49.4949   0  0.000
       404   4099.7070   3921.0703  19.8424   0.9311  20.9665   1.5620  19.4890   0.7926     1.713     1.443 -81.36  7.04     49.31274   0  0.007
       405   3228.6011   3925.6372  19.4836   0.7893  20.1873   1.0911  19.0089   0.6349     2.775     1.452  87.48  6.03     49.29497   0  0.020
       406    222.6685   3963.3438  16.0529   0.1625  16.2788   0.1803  16.0263   0.1606     5.968     2.672 -87.25  3.50       49.462   3  0.062
       407   4900.4814   4010.8210  14.8449   0.0932  14.8476   0.0933  14.8294   0.0925     5.672     3.565 -80.85  3.50     49.23342   3  0.074
       408   7000.6479   3964.4956  18.4465   0.4896  19.1709   0.6832  18.3385   0.4660     3.701     2.654  20.13  5.97      49.2533   0  0.190
       409   2833.6218   3967.4680  19.7180   0.8793  20.4072   1.2073  19.3787   0.7532     2.222     1.493  47.92  5.99     49.36918   0  0.191
       410   6279.7046   4297.7837   9.2252   0.0070   9.1011   0.0066  14.0090   0.0634  1234.047    16.068   0.03  3.50     17.76277  17  0.000
       411   4025.7585   3970.5015  20.4255   1.2180  21.5321   2.0268  20.0691   1.0369     1.577     0.966  54.15  6.73     49.34219   0  0.612
       412   5537.7759   4044.5498  14.9869   0.0995  14.9762   0.0990  14.9585   0.0982     5.521     4.531  85.68  3.50     49.23845   3  0.019
       413      4.8590   3986.5215  20.9571   1.5557  21.6569   2.1466  21.1762   1.7307     1.255     0.957  58.51  5.70     49.53087  16  0.464
       414   4909.9019   4022.1956  16.4359   0.1939  16.5486   0.2042  16.3707   0.1882     4.331     2.668 -80.63  3.50     49.23327   3  0.133
       415   6170.5210   4007.8716  19.1213   0.6680  19.6005   0.8327  18.7586   0.5656     3.297     1.842  86.81  5.20     49.25225   2  0.142
       416   4919.1929   4012.4189  17.3562   0.2962  17.4197   0.3050  17.2730   0.2851     4.114     2.132   8.24  3.50     49.23354   3  0.983
       417   6179.2686   4008.6672  19.0111   0.6350  19.9455   0.9760  18.6897   0.5479     3.199     1.721  18.37  6.62     49.25218   3  0.094
       418   4198.1177   4309.6035  14.4549   0.0779  13.1034   0.0418  13.9529   0.0618    29.124    20.398  27.83  3.50     8.356171   3  0.020
       419   2732.7722   4013.6826  19.2414   0.7059  19.8064   0.9155  19.1963   0.6923     2.911     1.747  37.89  5.43     49.36389   0  0.075
       420   5548.3179   4055.7820  16.3097   0.1829  16.4468   0.1948  16.2712   0.1797     5.938     2.938 -77.54  3.50     49.24435   3  0.031
       421   1522.4767   4066.4072  18.2070   0.4384  18.8407   0.5868  18.1818   0.4335     4.845     2.952  30.75  5.54     49.40717   0  0.000
       422   2925.5757   4141.8560  15.0461   0.1022  15.0488   0.1024  15.0255   0.1013     5.531     3.998  88.17  3.50     49.37587   3  0.019
       423   5804.3623   4074.2012  20.0480   1.0236  21.8059   2.2992  19.8807   0.9502     1.255     1.148  82.34  8.18     49.26057   0  0.121
       424   4201.2402   4446.8345  12.8961   0.0380  12.4126   0.0304  13.4984   0.0501    27.937    23.548 -11.55  3.50   0.02492291   3  0.154
       425   2937.3167   4154.3569  16.8824   0.2381  16.9689   0.2478  16.8435   0.2339     6.730     2.794 -76.51  3.50     49.37222   3  0.028
       426   2306.3091   4110.2817  20.1248   1.0605  21.9650   2.4740  19.9444   0.9786     1.399     0.938  -4.81  8.28     49.40386   0  0.158
       427    448.6753   4130.2393  18.1317   0.4234  18.5102   0.5040  18.1060   0.4186     4.929     3.276  24.80  4.70     49.44797   0  0.000
       428   8522.5605   4199.4229  14.7365   0.0886  14.6747   0.0862  14.8522   0.0935     5.285     4.569 -80.98  3.50     49.04551  18  0.117
       429   8524.7773   4138.0947  99.0000  99.0000  20.8406   1.4740  99.0000  99.0000     1.884     1.319  51.35  0.00     49.08637  16  0.258
       430   8420.1768   4209.7988  14.8163   0.0920  14.7645   0.0898  14.8773   0.0946     5.409     4.941  60.67  3.50     49.19608   2  0.023
       431   7243.4956   4153.4800  18.7213   0.5556  19.4739   0.7855  18.4776   0.4968     3.395     2.394  34.42  6.09     49.25459   0  0.000
       432   1894.8280   4162.1050  18.5487   0.5131  19.0460   0.6450  18.4314   0.4864     4.510     2.730  -3.61  4.97     49.40944   0  0.000
       433   6322.2480   4155.5996  19.1466   0.6758  19.9220   0.9656  18.7020   0.5511     2.446     1.877  84.30  6.35     49.24621   0  0.398
       434   1240.9429   4169.7603  19.3215   0.7326  20.3821   1.1934  19.1036   0.6633     2.404     1.854 -45.21  6.72      49.4171   0  0.002
       435   4752.1792   4204.3081  15.7360   0.1405  15.6933   0.1377  16.0210   0.1602     5.151     3.595 -37.59  3.50     49.27334   0  0.186
       436   8431.8047   4220.9902  16.7573   0.2248  16.7399   0.2230  99.0000  99.0000     4.723     2.212 -79.99  3.50     49.18695   3  0.153
       437    457.7719   4189.1660  18.7724   0.5688  19.3019   0.7257  18.6369   0.5347     3.700     2.266  18.90  5.32     49.45125   0  0.041
       438   4327.9731   4438.1064  14.3406   0.0739  12.8724   0.0376  13.5966   0.0524    31.264    22.656  -7.44  3.50     4.473373   3  0.048
       439   8531.8945   4207.5063  17.0815   0.2610  16.6450   0.2135  99.0000  99.0000     2.864     1.579 -83.79  3.50     48.82663  19  0.999
       440    447.5524   4217.9468  18.9164   0.6077  19.2025   0.6932  18.7668   0.5678     3.336     2.331  47.34  4.28     49.44958   0  0.012
       441   7637.6201   4232.9399  18.4288   0.4855  18.2049   0.4379  99.0000  99.0000     4.348     2.597  -0.98  3.50     49.24006   0  0.020
       442    349.1480   4289.0488  14.6231   0.0841  14.6200   0.0840  14.6043   0.0834     4.939     4.038 -89.53  3.50     49.28744   3  0.140
       443   6447.1289   4352.3179  99.0000  99.0000  10.5994   0.0132  15.4914   0.1255  1207.313    13.733  -0.00  0.00    0.1010198  25  0.051
       444    277.4675   4240.6406  19.5000   0.7953  20.3466   1.1741  19.2027   0.6944     1.868     1.803  64.61  6.47     49.46748   0  0.193
       445   2291.1277   4263.7861  19.9696   0.9873  21.4148   1.9202  19.1508   0.6779     1.561     1.177 -77.41  7.62       49.343   0  0.011
       446    359.3654   4298.3530  16.3618   0.1874  16.5346   0.2029  16.2652   0.1792     4.494     2.189 -84.32  3.50     49.23771   3  0.123
       447    579.3232   4272.9023  19.4849   0.7898  20.4743   1.2452  18.9922   0.6300     2.123     1.694  66.61  6.67     49.34402   0  0.002
       448    366.7859   4290.5010  17.8989   0.3803  17.9767   0.3942  17.6225   0.3350     2.723     2.270  35.45  3.50     49.27451   3  0.980
       449   2172.7183   4300.2290  18.3501   0.4683  19.0864   0.6571  18.0830   0.4142     3.430     2.856  14.22  6.30     49.22486   0  0.000
       450    948.7522   4321.8691  99.0000  99.0000  18.5458   0.5123  99.0000  99.0000     4.749     2.510  43.64  0.00     49.08614   0  0.013
       451   6826.4170   4410.2344  11.5974   0.0209  10.1153   0.0106  15.0844   0.1040  1180.327    12.629  -0.14  3.50     19.26509  19  0.000
       452    320.1211   4443.2617  14.5034   0.0796  14.5088   0.0798  14.5552   0.0815     6.805     4.442  55.36  3.50     49.37403   2  0.015
       453   2482.7222   4426.4092  99.0000  99.0000  18.3433   0.4667  99.0000  99.0000     7.588     2.119  39.91  0.00     49.26843   0  0.001
       454   2421.7134   4420.1577  16.9260   0.2430  16.0919   0.1655  99.0000  99.0000     4.001     3.778  78.57  3.50      49.2391   0  0.060
       455   2005.2483   4419.4775  99.0000  99.0000  19.6535   0.8533  99.0000  99.0000     3.631     2.132  18.77  0.00     49.22882   0  0.002
       456   1121.1774   4422.4956  21.1066   1.6665  20.8760   1.4983  99.0000  99.0000     2.045     1.244  68.13  3.50     49.25732   0  0.207
       457   1365.8346   4450.4839  18.0457   0.4070  18.3518   0.4685  17.8833   0.3778     4.109     2.411  79.10  4.66     49.38697   2  0.071
       458   5762.3511   4501.2358  15.6072   0.1324  15.5871   0.1311  15.8058   0.1451     6.007     3.823  83.05  3.50     49.28507   3  0.029
       459   1590.5507   4451.7271  18.0532   0.4085  18.7609   0.5657  18.0089   0.4003     4.579     3.188  30.30  5.95      49.4123   0  0.000
       460    336.7844   4443.0117  17.4918   0.3153  17.5119   0.3182  19.3383   0.7393     2.328     1.783  19.22  3.50     49.37397   3  0.982
       461   5774.5195   4516.3296  15.6023   0.1321  15.6266   0.1336  15.5134   0.1268     6.825     2.974 -82.03  3.50      49.2894   3  0.025
       462   1373.0695   4450.7729  18.3427   0.4666  19.0728   0.6530  18.1229   0.4219     3.587     1.791   7.14  5.69     49.38716   3  0.206
       463   7636.8799   4462.1499  20.0105   1.0058  19.6786   0.8632  99.0000  99.0000     1.805     1.756 -61.70  3.50     49.20562   2  0.916
       464   1895.5000   4462.9976  20.5802   1.3079  21.6905   2.1801  19.6768   0.8646     1.338     0.969  64.96  6.80     49.39425   0  0.526
       465   1916.1848   4469.2212  19.7320   0.8849  20.3301   1.1652  19.1419   0.6751     1.865     1.683  74.79  5.77     49.40171   0  0.651
       466   2006.5770   4484.0293  19.0908   0.6586  19.4432   0.7745  18.8410   0.5876     2.638     1.909  73.24  4.96     49.40378   2  0.324
       467   2014.2427   4485.2266  20.0570   1.0278  21.0892   1.6528  19.4463   0.7771     1.857     1.153  -0.97  6.40     49.40252   3  0.655
       468   2050.9651   4496.7480  19.5741   0.8229  20.3261   1.1631  19.5142   0.8019     2.593     1.508  87.90  6.01     49.40783   0  0.010
       469   7112.8579   4515.0508  20.0814   1.0395  21.4290   1.9328  99.0000  99.0000     1.989     0.935  64.35  7.41     49.23609   0  0.013
       470   6580.9370   4556.7153  16.6827   0.2173  17.5830   0.3288  16.9421   0.2448     6.002     4.703   7.53  6.86     49.30624   0  0.007
       471   1434.8462   4568.1553  15.2394   0.1117  15.2443   0.1120  15.2219   0.1108     6.602     3.292  56.49  3.50     49.41578   2  0.841
       472   4567.0391   4539.7808  17.7529   0.3557  19.6338   0.8456  17.5452   0.3232     3.304     2.296  31.61  8.45     49.30568   0  0.004
       473   6636.1421   4610.6372  15.1229   0.1059  15.1161   0.1056  15.1085   0.1052     5.640     4.223  81.86  3.50     49.31362   3  0.027
       474   7675.0972   4541.9453  18.0127   0.4009  20.2342   1.1149  17.6271   0.3357     2.903     1.913  -0.38  8.78     49.22566   0  0.001
       475    623.4277   4558.3706  19.6641   0.8578  21.1281   1.6828  19.3417   0.7404     1.809     1.474  64.21  7.57     49.40658   0  0.001
       476   1058.2936   4562.6182  19.4721   0.7852  20.7559   1.4177  19.3119   0.7303     1.841     1.715  59.86  7.38     49.39513   0  0.002
       477   1448.9865   4564.9800  18.7329   0.5584  18.7777   0.5700  18.3067   0.4592     2.257     2.029  35.94  3.54     49.41605   3  0.983
       478   6648.5024   4624.6997  16.4541   0.1955  16.4958   0.1993  16.4275   0.1931     6.528     2.753 -79.05  3.50     49.30698   3  0.029
       479   3616.8345   4575.0825  19.4329   0.7710  19.9581   0.9817  19.2548   0.7113     2.250     1.677  69.65  5.50     49.29077   0  0.782
       480   6988.2280   4579.8081  19.8456   0.9325  20.8121   1.4548  19.4048   0.7624     1.819     1.668  59.46  6.44     49.23462   0  0.006
       481   7660.1821   4594.3960  18.2409   0.4452  18.3643   0.4712  18.3926   0.4777     4.691     2.785  10.24  3.50     49.22319   0  0.011
       482   7506.5127   4608.9673  18.6210   0.5304  18.9885   0.6282  18.8832   0.5991     4.124     3.340  51.30  3.50     49.21261   0  0.000
       483   8506.0205   4690.8198  15.3288   0.1164  15.4279   0.1219  15.4362   0.1223    13.116     7.273  26.81  3.81     49.24184  24  0.027
       484   6589.7104   4674.8643  15.3794   0.1192  15.3911   0.1198  15.3489   0.1175     5.691     3.729  86.01  3.50     49.30456   3  0.028
       485    516.3946   4629.3813  18.1767   0.4323  18.5197   0.5062  18.0032   0.3992     4.170     2.422  81.07  4.78     49.41454   2  0.196
       486   6602.0088   4689.3247  16.1354   0.1688  16.1706   0.1716  16.0885   0.1652     6.932     2.935 -78.82  3.50      49.2981   3  0.031
       487    522.2141   4629.4395  18.1637   0.4297  18.8510   0.5896  17.9262   0.3853     4.867     1.784   8.13  4.89     49.41461   3  0.077
       488   7340.9912   4629.0190  20.5960   1.3175  21.6379   2.1280  99.0000  99.0000     1.540     0.895  44.75  6.56     49.21944   0  0.326
       489   7064.5767   4643.9829  19.8960   0.9544  20.6654   1.3598  19.6503   0.8540     1.904     1.395  71.39  6.18     49.23362   0  0.727
       490    339.2654   4673.6685  20.1440   1.0699  21.0498   1.6231  19.7576   0.8975     1.614     1.231 -88.24  6.56     49.42317   0  0.385
       491   7770.9175   4694.8750  18.5798   0.5205  18.9023   0.6037  18.3586   0.4703     3.611     2.085  80.82  4.66     49.22133   2  0.366
       492   4469.1504   4691.8315  20.2188   1.1074  21.7980   2.2909  19.5352   0.8097     1.287     1.101  44.58  7.83     49.30164   0  0.074
       493   7778.8989   4694.3340  19.0621   0.6500  19.7557   0.8943  18.7631   0.5668     3.049     1.581   6.75  5.92     49.22064   3  0.828
       494    705.9854   4701.9824  18.7958   0.5749  19.3675   0.7480  18.4403   0.4884     2.751     2.010  69.64  6.28     49.41227   0  0.440
       495    535.7281   4697.0605  19.8832   0.9488  21.7806   2.2726  19.7841   0.9086     1.393     1.080  47.50  8.48     49.42025   0  0.080
       496   6945.9443   4727.1606  20.5157   1.2696  22.0618   2.5868  20.2149   1.1095     1.331     0.779  82.66  7.83     49.24877   0  0.453
       497   3311.3943   4780.2085  19.2404   0.7056  19.8303   0.9256  19.0414   0.6445     2.282     1.765  80.17  6.29     49.33299   0  0.364
       498   7746.7007   4800.1450  17.8988   0.3804  18.2926   0.4559  17.7741   0.3592     4.733     3.181   0.35  5.18     49.24268   0  0.017
       499    813.2987   4818.9878  18.2607   0.4494  18.8194   0.5811  18.2038   0.4379     3.841     3.247  19.39  5.83     49.41552   2  0.000
       500    729.8659   4809.9727  19.9501   0.9784  20.6836   1.3712  19.4624   0.7829     1.843     1.480  60.20  6.00     49.41862   0  0.378
       501   8056.7832   4814.7095  19.3233   0.7331  19.9356   0.9716  19.0775   0.6553     2.887     1.789  56.74  5.60     49.18689   0  0.018
       502   7038.5532   4828.0386  19.5851   0.8270  20.2933   1.1456  19.2733   0.7174     2.053     1.587  70.54  6.21     49.24593   0  0.450
       503    221.6113   4860.9863  20.1218   1.0590  20.9075   1.5202  19.4721   0.7864     1.655     1.373  81.62  6.14     49.45089   0  0.575
       504   2253.4958   4861.2588  19.9585   0.9823  21.1595   1.7072  19.3263   0.7352     1.629     1.312  59.67  7.01     49.39226   0  0.136
       505   3554.2102   4863.6772  19.3915   0.7566  20.9405   1.5435  18.9109   0.6068     2.230     1.387  58.94  7.86      49.2879   0  0.001
       506   1714.7797   4885.3276  18.4876   0.4989  19.0629   0.6501  18.3580   0.4702     4.185     2.768   7.00  5.51     49.41645   0  0.000
       507   8353.0205   4944.1558  14.5963   0.0831  14.5935   0.0830  14.5787   0.0824     5.152     3.989 -85.94  3.50     49.17581   3  0.226
       508   1007.5391   4909.7285  17.2792   0.2859  17.4856   0.3144  17.2332   0.2800     4.958     4.287  -6.19  4.29     49.38856   0  0.023
       509   5417.2930   4888.2998  19.2585   0.7116  20.5825   1.3088  19.0904   0.6593     1.893     1.688  76.98  7.58     49.24038   0  0.044
       510   8366.8115   4956.9009  16.3829   0.1892  16.4326   0.1936  16.3276   0.1845     7.368     2.950 -76.31  3.50     49.17105   3  0.029
       511   2085.7251   4910.2290  18.9426   0.6152  19.4363   0.7721  18.7981   0.5760     3.780     2.414  48.31  5.12     49.38986   0  0.004
       512   6399.4194   4913.0186  19.7272   0.8831  20.8893   1.5075  19.5378   0.8107     2.199     1.389  40.25  6.92     49.27224   0  0.001
       513    122.7898   4922.1519  20.4827   1.2505  21.9625   2.4712  20.0766   1.0405     1.291     0.873  80.21  7.77      49.4741   0  0.531
       514   7046.8716   4922.6968  20.4043   1.2062  21.3892   1.8977  19.8945   0.9563     1.465     1.171  72.24  6.63     49.23841   0  0.558
       515   2842.5308   4943.5742  19.2353   0.7040  20.1173   1.0564  18.8752   0.5969     2.380     1.850  71.59  6.44     49.34753   0  0.016
       516   5098.9741   4945.8940  20.0488   1.0240  21.2664   1.7934  19.8462   0.9351     1.572     1.295  83.26  7.05     49.25194   0  0.087
       517   1901.0715   4971.3560  19.0784   0.6549  19.4561   0.7791  19.0066   0.6342     3.309     2.206  19.52  4.73     49.40592   0  0.092
       518   3880.9561   4988.6133  19.3996   0.7594  20.3594   1.1811  19.1782   0.6865     2.359     1.772 -42.00  6.61     49.28039   0  0.002
       519    156.5703   4999.1201  18.7652   0.5669  19.5293   0.8058  18.5999   0.5257     2.750     2.242  63.81  6.31     49.47069   0  0.094
       520   4307.3584   5005.2163  99.0000  99.0000  19.8797   0.9469  99.0000  99.0000     2.349     1.311   1.73  0.00     49.18039   0  0.937
       521   4670.5796   5006.3672  20.4277   1.2192  21.9800   2.4911  19.9777   0.9939     1.132     0.980  43.47  7.81     49.26263   0  0.293
       522   4044.5312   5019.5845  19.2360   0.7042  20.0004   1.0011  18.7354   0.5596     2.375     1.742  75.98  6.45     49.28127   0  0.279
       523   7059.4541   5086.0537  15.5509   0.1290  15.5582   0.1294  15.5389   0.1283     7.082     4.199  70.87  3.50     49.25283   0  0.029
       524   1763.5431   5093.5352  15.2414   0.1118  15.2707   0.1134  15.2135   0.1104     6.118     3.720  82.65  3.50     49.43782   3  0.025
       525   8223.0000   5034.4580  20.1873   1.0914  21.0657   1.6350  19.8956   0.9568     1.573     1.254  69.19  6.32     49.20256   0  0.654
       526   1775.1772   5107.2295  16.0041   0.1589  16.0556   0.1627  15.9604   0.1558     7.504     2.926 -80.54  3.50     49.43318   3  0.029
       527    181.4882   5076.6689  18.6086   0.5274  18.9225   0.6093  18.5582   0.5157     3.518     2.337  81.92  4.40     49.49636   2  0.102
       528    190.6398   5075.9946  19.4347   0.7717  20.1006   1.0483  19.2889   0.7226     2.773     1.414   8.88  5.72     49.49527   3  0.694
       529   7879.4233   5077.8301  19.2036   0.6938  19.9669   0.9857  18.9841   0.6277     2.339     1.829  58.49  6.41     49.21538   0  0.151
       530   1652.1888   5125.4443  17.9756   0.3941  18.5247   0.5074  17.8679   0.3751     5.267     2.482  79.74  5.37     49.43315   2  0.381
       531    723.0005   5131.0420  17.0222   0.2540  17.2364   0.2803  16.9906   0.2504     6.005     4.572 -33.07  4.35      49.4203   0  0.022
       532   1690.2355   5091.3335  19.6791   0.8636  20.2420   1.1189  19.1836   0.6883     1.932     1.764  58.23  5.49      49.4599   0  0.479
       533   2049.1980   5112.9736  18.3396   0.4660  18.5051   0.5028  18.3184   0.4617     4.610     2.904   1.28  3.76     49.39531   0  0.010
       534   1149.1655   5111.0635  20.6337   1.3406  21.5017   1.9986  20.3146   1.1621     1.337     1.122  53.59  6.21     49.40509   0  0.674
       535    314.7790   5119.7158  19.3804   0.7527  20.5574   1.2938  19.0968   0.6612     2.269     1.598 -17.04  7.12     49.46559   0  0.001
       536   1658.1982   5125.8491  17.8667   0.3748  18.7470   0.5620  17.7396   0.3535     4.541     2.394   7.90  5.86     49.43533   3  0.017
       537   3601.7991   5126.7603  19.8386   0.9295  20.7835   1.4358  19.5089   0.7999     1.727     1.438 -86.24  6.60     49.30638   0  0.570
       538   6159.8320   5148.8730  18.4986   0.5015  19.2112   0.6960  18.3950   0.4783     4.297     2.523  11.70  5.91      49.3127   0  0.000
       539   3542.4199   5146.7690  19.9021   0.9570  20.5110   1.2664  19.5947   0.8323     1.883     1.524  74.51  5.63     49.32261   0  0.481
       540   4343.6372   5175.6592  19.4057   0.7614  21.6950   2.1847  18.8395   0.5871     1.661     1.098  63.82  8.92     49.16055   0  0.045
       541   2413.4797   5178.4956  20.5425   1.2853  22.2400   2.8080  19.9588   0.9852     0.944     0.943 -65.19  8.11     49.42011   0  0.486
       542   4920.7100   5180.5991  19.3109   0.7290  20.2308   1.1131  19.1754   0.6857     2.104     1.891  72.50  6.63     49.28869   0  0.117
       543   7641.8560   5214.9893  20.7571   1.4189  21.9901   2.5027  20.1200   1.0617     1.237     0.844  71.31  7.15     49.21721   0  0.651
       544   7083.7515   5238.6670  18.6884   0.5473  19.6265   0.8427  18.6113   0.5284     2.820     2.530 -36.51  6.67     49.26552   0  0.005
       545   7659.7168   5237.6357  19.8695   0.9428  20.6558   1.3537  19.4514   0.7790     1.877     1.447  79.26  6.28     49.21459   0  0.515
       546    674.3544   5251.2075  19.0571   0.6486  20.0016   1.0016  18.9295   0.6120     2.475     2.155  39.83  6.64     49.45144   0  0.018
       547   5345.7061   5274.0928  17.9560   0.3905  18.2555   0.4482  17.8760   0.3765     5.150     3.097   1.14  4.64     49.32937   0  0.012
       548    710.9393   5257.5327  20.2542   1.1256  21.3126   1.8319  19.5683   0.8222     1.435     1.196 -71.48  7.15     49.44477   0  0.364
       549   7549.2388   5270.8301  20.3784   1.1918  22.2249   2.7886  19.9794   0.9947     1.159     0.859 -79.46  8.24     49.21005   0  0.375
       550   7923.6602   5279.9951  19.6513   0.8527  21.3133   1.8325  19.3389   0.7395     1.950     1.162 -22.63  7.99     49.20469   0  0.006
       551   2754.3586   5287.3789  20.3800   1.1927  22.0851   2.6147  19.5245   0.8058     1.047     0.902  48.19  8.06     49.41614   0  0.487
       552   4534.6191   5288.8164  19.8393   0.9297  20.5064   1.2638  19.8594   0.9409     2.147     1.372  70.60  5.79     49.29289   0  0.448
       553   5434.8467   5307.0391  19.7941   0.9107  20.9048   1.5182  19.5670   0.8217     2.166     1.179  83.47  6.99     49.36194   0  0.082
       554   8076.8936   5322.0435  20.3416   1.1718  21.6614   2.1512  19.9414   0.9773     1.284     1.020  38.59  7.57     49.21866   0  0.625
       555   2933.0469   5430.7007  15.0921   0.1044  15.0844   0.1040  15.0379   0.1018     7.543     2.735 -87.79  3.50     49.43462   3  0.026
       556   2920.6431   5416.2920  15.7740   0.1429  15.8298   0.1467  15.6967   0.1379     6.708     3.766  88.52  3.50     49.43836   3  0.029
       557   8323.4941   5371.7573  20.2345   1.1154  21.6305   2.1208  19.0163   0.6371     1.259     1.032  89.99  7.65     49.18143   0  0.556
       558   6213.3726   5698.5771  12.4573   0.0310  12.7663   0.0358  14.6468   0.0851   198.236    19.380  -0.23  4.10     51.62709   2  0.000
       559   3020.8853   5392.3535  19.8425   0.9312  21.1862   1.7283  19.8349   0.9302     1.660     1.435  55.93  7.30     49.41799   0  0.008
       560   6843.7617   5426.2085  17.5564   0.3249  17.9135   0.3829  17.5202   0.3195     6.203     3.819  22.65  4.78     49.31339   0  0.000
       561   6157.8848   5700.2544  14.0225   0.0638  14.3602   0.0745  14.7119   0.0876    24.472    12.970  86.14  4.43     52.14458   3  0.000
       562   6698.7661   5420.8086  18.4003   0.4792  18.7655   0.5669  18.2596   0.4493     4.164     2.606  14.63  4.88     49.33694   0  0.178
       563    608.8076   5550.1333  14.9274   0.0968  14.9241   0.0966  14.8730   0.0944     8.429     3.137 -88.17  3.50     49.54886   3  0.028
       564    595.5065   5534.7910  15.3759   0.1190  15.4401   0.1226  15.3100   0.1154     7.314     4.138  89.09  3.50     49.54734   3  0.029
       565   3939.3481   5459.3521  20.5000   1.2605  22.0601   2.5847  19.7312   0.8866     1.052     0.900  46.56  7.98     49.28815   0  0.509
       566   8108.9033   5459.2710  20.2015   1.0986  21.2379   1.7700  19.3874   0.7563     1.487     1.237  66.65  6.91     49.21934   0  0.435
       567   8482.6055   5482.2988  19.5974   0.8317  20.2532   1.1246  19.4004   0.7608     2.023     1.680  43.62  5.92     49.15435   0  0.336
       568    181.7401   5512.1270  18.1107   0.4194  18.4365   0.4872  18.0765   0.4130     5.355     3.263  41.60  4.60     49.48597   0  0.000
       569   4687.4609   5507.7788  18.0996   0.4172  18.3679   0.4720  17.9037   0.3813     3.857     2.358  72.94  4.58     49.31131   2  0.348
       570   4035.7324   5499.0103  20.1545   1.0751  21.6043   2.0954  19.7460   0.8927     1.583     0.977 -37.06  7.79      49.2975   0  0.222
       571   4694.7661   5507.2656  18.5088   0.5037  19.2128   0.6965  18.2541   0.4482     3.837     1.652  11.25  5.66     49.31409   3  0.886
       572   6815.5103   5516.8506  19.0965   0.6604  19.5921   0.8295  18.8609   0.5930     2.874     2.049  13.16  5.16     49.34877   0  0.291
       573   6805.8643   5543.0405  18.8877   0.5998  19.3861   0.7544  18.6766   0.5446     3.424     2.602  10.74  5.23     49.36144   0  0.076
       574    632.6991   5539.6733  19.5477   0.8129  20.7186   1.3935  18.5587   0.5158     1.767     1.468  87.54  7.11     49.52954   0  0.229
       575   1107.2858   5541.1318  20.3055   1.1524  21.0469   1.6209  19.9723   0.9914     1.646     1.198  82.28  5.85     49.45162   0  0.660
       576   4976.4136   5546.1343  20.2435   1.1200  21.7780   2.2698  19.9311   0.9726     1.249     0.989 -74.25  7.93     49.34273   0  0.612
       577   3600.7910   5570.0083  19.7796   0.9046  20.7478   1.4123  19.1150   0.6668     1.686     1.431  80.43  6.83      49.3798   0  0.644
       578   7646.3301   5590.7998  18.8551   0.5910  19.8829   0.9484  18.7305   0.5583     3.570     1.804  74.24  6.87     49.26254   0  0.016
       579   7719.1118   5612.8428  20.2704   1.1340  21.0850   1.6496  20.2682   1.1373     1.661     1.227  71.85  6.14     49.25876   0  0.662
       580   1375.8639   5643.4277  18.4405   0.4882  18.9199   0.6086  18.3888   0.4769     3.619     2.221  49.66  5.85     49.48092   2  0.096
       581   1090.0947   5636.6543  19.7618   0.8972  21.4593   1.9600  19.5968   0.8331     1.725     1.190  82.12  8.02      49.4599   0  0.078
       582   6207.5015   5638.0562  19.1980   0.6920  20.6274   1.3361  18.2901   0.4557     1.999     1.295  67.85  7.82     51.18642   0  0.693
       583   6056.0962   5654.4927  18.3340   0.4649  19.3342   0.7366  17.9931   0.3974     5.228     1.728  38.21  7.02      50.1814   0  0.616
       584   8256.0957   5657.5059  18.3459   0.4673  18.7981   0.5754  18.2711   0.4517     3.607     3.036  39.52  4.95     49.22451   2  0.205
       585   4769.4321   5646.3721  20.3982   1.2027  21.9221   2.4255  19.6706   0.8621     1.226     0.982  25.24  7.57     49.32851   0  0.554
       586    404.2105   5670.8193  17.6020   0.3318  17.8192   0.3666  17.5356   0.3218     5.145     3.477  -1.41  4.35     49.47993   0  0.018
       587   2155.7917   5663.1196  18.3486   0.4680  19.2610   0.7122  18.2524   0.4478     3.897     2.584  19.26  6.70      49.4621   0  0.165
       588   8264.6846   5657.4482  19.0181   0.6369  20.0339   1.0166  18.7093   0.5529     3.325     1.198  10.49  6.61     49.22398   3  0.821
       589    305.0553   5665.9282  20.1259   1.0610  21.0586   1.6297  19.8417   0.9332     1.750     1.163  71.79  6.59     49.48336   0  0.670
       590   1179.3789   5666.5962  20.2517   1.1243  21.6152   2.1059  20.0579   1.0315     2.049     0.779  55.53  7.28     49.46208   0  0.079
       591   7433.6782   5675.0093  20.2249   1.1105  21.6622   2.1519  19.2578   0.7123     1.292     1.013  88.77  7.57     49.27477   0  0.594
       592   2703.3875   5738.0244  16.6051   0.2096  16.9144   0.2417  16.6400   0.2130     6.422     5.708  -2.54  4.96     49.45913   2  0.024
       593   4991.9131   5677.8022  19.1172   0.6668  20.2197   1.1075  18.6332   0.5338     2.206     1.906  66.72  7.07     49.36183   0  0.058
       594   7423.1396   5680.4341  19.1696   0.6831  20.0546   1.0263  18.9257   0.6110     2.306     2.072  74.15  6.60     49.27588   0  0.003
       595   4776.4902   5698.1177  19.0356   0.6421  19.7275   0.8828  18.7986   0.5762     2.937     1.872  46.36  6.12     49.34172   0  0.525
       596   2685.7878   5718.3613  18.0357   0.4052  18.6167   0.5293  17.9133   0.3830     4.522     3.289  22.92  5.80      49.4576   3  0.129
       597     68.1080   5705.5981  20.0166   1.0089  21.4878   1.9859  19.5940   0.8321     1.591     1.058  56.55  7.85     49.53093   0  0.053
       598    579.2614   5729.1201  18.8201   0.5814  19.2523   0.7093  18.5921   0.5238     2.738     2.083  82.70  5.23     49.49513   2  0.641
       599    588.2886   5730.3135  19.4902   0.7917  20.4968   1.2582  19.0637   0.6512     2.513     1.422  23.99  6.58     49.49677   3  0.095
       600   1824.6233   5754.3506  20.7715   1.4283  22.0274   2.5461  19.8332   0.9295     1.037     0.904 -46.48  7.26     49.49749   0  0.587
       601   4052.7366   5928.7036  14.5052   0.0797  14.5130   0.0800  14.5329   0.0807    12.017     5.790  68.53  3.50     49.42578   0  0.031
       602   5079.1538   5779.1211  19.0714   0.6528  19.6829   0.8649  18.9347   0.6135     2.415     1.893  76.13  6.37     49.34952   2  0.302
       603   2901.4512   5859.7202  15.2160   0.1105  15.2231   0.1109  15.1893   0.1092     5.407     3.215 -89.60  3.50     49.41647   3  0.063
       604   1978.2419   5808.0732  20.5636   1.2979  21.4682   1.9680  20.2755   1.1412     1.333     1.123  54.91  6.24     49.48421   0  0.630
       605   2910.6951   5870.2295  16.1015   0.1662  16.2928   0.1815  16.0586   0.1630     6.184     3.406 -72.26  3.50     49.41575   3  0.029
       606   3378.9248   5885.1362  15.1428   0.1069  15.1397   0.1067  15.1217   0.1059     5.880     3.566  88.05  3.50      49.4334   3  0.020
       607   7748.0962   5838.6929  18.5527   0.5141  19.1847   0.6876  18.4243   0.4848     3.673     2.555  15.11  5.82     49.26222   0  0.128
       608   8250.5840   5849.8462  20.5453   1.2871  21.7803   2.2723  20.1111   1.0573     1.248     0.984 -74.72  7.26     49.21357   0  0.622
       609    313.1177   5868.2437  18.7841   0.5719  19.5465   0.8123  18.7921   0.5745     3.405     2.607  72.95  5.99     49.47905   0  0.001
       610   3389.2749   5896.2129  16.4373   0.1940  16.6498   0.2139  16.3931   0.1901     6.271     3.210 -72.95  3.50      49.4362   3  0.029
       611   2513.5317   5934.5811  14.9279   0.0968  14.9319   0.0970  14.9124   0.0961     5.847     3.728  88.33  3.50      49.4497   3  0.031
       612   6725.0737   5889.8477  19.7406   0.8885  20.4710   1.2433  19.2272   0.7023     1.843     1.614  68.36  6.08     49.43624   0  0.255
       613   2525.9788   5948.4121  16.5632   0.2056  16.6194   0.2110  16.5339   0.2028     7.250     2.825 -77.05  3.50     49.44865   3  0.029
       614   7884.1274   5897.0557  19.3636   0.7469  20.2614   1.1289  19.2655   0.7148     2.602     1.530  77.22  6.61     49.27022   0  0.019
       615   3611.2974   6003.8066  15.2365   0.1116  15.6336   0.1340  15.6222   0.1333    11.164     9.614  30.21  5.34     49.53705   0  0.024
       616   8447.3750   5924.7871  18.0838   0.4143  18.8375   0.5860  18.0756   0.4128     4.727     3.412  56.31  5.93     49.18273   0  0.000
       617   1021.7222   5957.5278  15.3935   0.1200  15.3948   0.1200  15.3586   0.1181     4.491     2.391  84.31  3.50     49.48752   3  0.984
       618   8129.6904   5910.6006  19.5734   0.8227  20.9411   1.5439  19.1368   0.6736     2.026     1.404 -75.22  7.48     49.27102   0  0.003
       619   1030.1299   5964.8965  16.1645   0.1711  16.3954   0.1903  16.1260   0.1681     6.001     2.373 -89.69  3.50     49.48841   3  0.154
       620    230.0694   5916.8330  20.1857   1.0906  21.2025   1.7413  19.8019   0.9161     1.693     1.230  80.14  6.53     49.48969   0  0.010
       621     81.3313   5931.6895  20.4414   1.2269  22.2491   2.8198  20.2916   1.1497     1.231     0.720  44.87  8.29     49.53714   0  0.483
       622   8533.4561   5937.9111  20.2837   1.1407  20.6288   1.3370  20.1299   1.0648     1.799     1.239   3.67  5.18      49.1847  24  0.745
       623   1313.5889   5943.2598  20.2775   1.1378  21.6704   2.1601  20.1145   1.0590     1.576     0.940  68.85  7.50     49.47412   0  0.070
       624   1037.9827   5956.6118  17.1526   0.2697  17.1616   0.2708  17.0426   0.2564     2.618     2.164   8.43  3.50     49.48732   3  0.984
       625   8021.6475   5959.4351  18.9288   0.6113  19.7610   0.8965  18.8714   0.5959     2.712     2.297  76.48  6.43     49.29464   0  0.300
       626   3261.8713   5984.1743  16.9777   0.2488  17.0816   0.2610  16.9377   0.2443     6.074     3.894  -7.65  3.73     49.43168   0  0.028
       627   7399.6748   5972.2148  19.2489   0.7084  20.1208   1.0581  19.0814   0.6565     2.483     2.011  25.63  6.35     49.29834   0  0.002
       628   6884.2500   5971.9116  20.4459   1.2295  21.5389   2.0332  20.1312   1.0672     1.367     1.055  48.80  6.99     49.39023   0  0.621
       629   2349.1321   5978.6084  19.8276   0.9248  20.3819   1.1933  19.4365   0.7736     2.113     1.419  63.25  5.78      49.4382   0  0.526
       630   3869.5366   6004.3467  18.9847   0.6273  19.7123   0.8767  18.8931   0.6019     2.627     2.492  65.22  6.01     49.38054   0  0.003
       631    119.4570   6012.7358  20.2651   1.1313  21.5470   2.0408  20.3421   1.1770     1.614     1.081  78.75  7.37     49.53914   0  0.012
       632   8098.8306   6028.9351  19.9067   0.9591  20.5752   1.3044  19.8445   0.9344     2.001     1.505  40.92  5.56     49.28819   0  0.107
       633   6006.5557   6038.1377  19.9752   0.9898  20.9603   1.5576  19.4799   0.7893     1.606     1.363  69.11  6.84     49.54647   0  0.692
       634   3744.1006   6054.1572  19.6678   0.8592  20.4824   1.2498  19.2668   0.7153     2.018     1.596  69.05  6.29     49.40782   0  0.089
       635    276.9329   6067.6069  18.5372   0.5104  18.8676   0.5941  18.5178   0.5062     4.310     2.632   0.67  4.47     49.51601   0  0.051
       636   5347.2363   6153.1055  16.2480   0.1778  16.4325   0.1936  16.2492   0.1779     6.637     6.162 -22.99  4.33     49.42109   0  0.028
       637   8331.4043   6141.4033  16.4888   0.1987  16.6777   0.2167  16.4120   0.1918     7.119     4.011  85.63  4.14     49.29375   2  0.028
       638    119.5227   6093.0093  20.1705   1.0830  21.6608   2.1506  19.7477   0.8934     1.370     1.091  89.36  7.69     49.56785   0  0.087
       639   7801.4058   6098.9150  19.8210   0.9220  21.4962   1.9936  19.8349   0.9303     1.459     1.268 -12.56  8.06     49.26809   0  0.087
       640   3348.4517   6102.0205  20.5958   1.3173  21.6387   2.1287  20.2892   1.1485     1.310     0.974  67.31  6.81      49.4158   0  0.668
       641   7997.8818   6163.3062  17.0286   0.2548  17.3395   0.2939  17.0240   0.2542     7.100     5.524 -15.37  4.33     49.28138   0  0.000
       642   5062.0815   6112.4331  20.3127   1.1563  21.4979   1.9951  19.6093   0.8380     1.506     1.008  61.33  7.01     49.34953   0  0.627
       643   7270.8364   6118.8003  20.0867   1.0420  20.9820   1.5732  19.6459   0.8523     1.680     1.298  60.87  6.49     49.32967   0  0.587
       644   6970.5381   6122.8628  20.4662   1.2410  21.5528   2.0462  19.7075   0.8769     1.319     1.037  77.99  6.84     49.39019   0  0.624
       645    212.4871   6181.8213  16.1386   0.1691  16.4315   0.1935  16.1906   0.1732     7.486     5.675 -14.17  4.86     49.58755   0  0.027
       646   6896.3579   6129.6284  19.6619   0.8568  20.4708   1.2432  19.1660   0.6827     1.929     1.589 -89.89  6.42      49.3877   0  0.662
       647   8339.3779   6139.1304  17.1306   0.2670  17.6755   0.3431  16.9048   0.2406     5.729     2.133   4.60  4.78     49.29444   3  0.035
       648   8432.0762   6160.9658  18.1798   0.4330  18.8041   0.5770  18.1619   0.4295     4.591     3.717  36.67  5.41     49.22018   0  0.000
       649   7251.7280   6182.0913  19.2888   0.7216  20.9204   1.5293  19.1320   0.6721     2.219     1.372  53.08  8.05     49.33858   0  0.001
       650   5893.8545   6186.3047  19.6394   0.8480  20.4216   1.2153  19.5127   0.8014     1.938     1.699  71.14  6.17     49.44867   0  0.111
       651   5651.1592   6186.8413  19.9282   0.9687  21.0496   1.6230  19.8401   0.9325     1.826     1.247  66.81  7.01     49.40667   0  0.281
       652    762.5095   6256.2437  14.7644   0.0898  14.7417   0.0889  14.7305   0.0884     6.021     4.410  77.45  3.50     49.49038   3  0.032
       653    442.2738   6193.1284  19.8544   0.9362  20.3962   1.2012  19.5121   0.8011     1.987     1.461  70.44  5.69     49.49852   0  0.744
       654   3437.3284   6196.6924  19.5231   0.8038  20.2644   1.1305  19.2721   0.7170     2.278     1.728  60.25  6.07     49.43513   0  0.014
       655    147.8810   6205.4995  18.4040   0.4800  18.6822   0.5455  18.2470   0.4467     4.802     2.269  13.47  4.65     49.59239   0  0.197
       656   5387.8550   6202.8208  18.7941   0.5745  19.5435   0.8111  18.6735   0.5438     3.091     2.581   5.23  5.88     49.39093   0  0.000
       657   3767.1780   6208.5576  19.2315   0.7028  20.3522   1.1772  19.1208   0.6686     2.569     1.699  36.41  7.04     49.40847   0  0.001
       658   5149.7324   6218.9360  19.5516   0.8143  20.1721   1.0834  19.3683   0.7496     2.057     1.687  82.83  5.75     49.36192   0  0.325
       659   8352.7715   6226.7261  19.6182   0.8397  20.0552   1.0266  19.3019   0.7269     2.225     1.885  31.87  5.03     49.29428   0  0.087
       660   4776.4629   6523.5029  99.0000  99.0000  11.0988   0.0166  14.7137   0.0877   360.562    16.352   0.98  0.00     28.63982   3  0.001
       661    772.1786   6266.2134  15.9210   0.1529  16.2478   0.1778  15.8900   0.1508     5.730     2.708 -89.84  3.50     49.49474   3  0.140
       662   4055.1414   6270.1548  17.4924   0.3154  17.6252   0.3353  17.4680   0.3120     5.449     3.632  21.09  3.71     49.39876   0  0.016
       663    126.5489   6244.9336  18.9509   0.6176  19.5251   0.8043  18.8127   0.5799     3.258     2.325  27.75  5.40     49.58609   0  0.003
       664   2314.8567   6524.1846  10.2156   0.0111   9.8543   0.0094  14.8236   0.0923  1296.852    13.661  -0.15  3.50     28.60751  19  0.001
       665   7513.9561   6268.0488  20.1501   1.0729  21.9052   2.4068  19.7624   0.8995     1.474     0.861 -80.86  8.25      49.3183   0  0.505
       666    153.6828   6283.9717  20.3557   1.1794  21.7415   2.2319  20.1727   1.0880     1.298     1.025  89.66  7.51      49.5862   0  0.342
       667    133.1341   6347.6436  17.2885   0.2871  17.4559   0.3101  17.2591   0.2833     6.020     4.054  21.53  4.08     49.57307   0  0.012
       668   6138.4810   6317.1670  20.6775   1.3679  21.9956   2.5091  20.7344   1.4130     1.210     0.886 -89.18  7.35     49.44912   0  0.624
       669   2050.6917   6320.1182  19.5539   0.8153  20.2535   1.1248  19.6193   0.8419     2.879     1.397  60.96  5.97     49.49093   0  0.002
       670   3329.8774   6324.0557  20.1600   1.0778  21.6812   2.1708  19.7010   0.8743     1.278     1.159  65.31  7.62     49.43713   0  0.116
       671    785.4795   6330.3735  18.6574   0.5395  19.2843   0.7198  18.6033   0.5265     2.794     2.245  80.99  6.48     49.51492   2  0.124
       672   7977.2646   6332.9536  19.7634   0.8979  21.4033   1.9101  19.5612   0.8195     1.714     1.231   4.23  8.11     49.29247   0  0.007
       673   6316.1831   6363.6597  19.3060   0.7273  19.7753   0.9025  19.2215   0.7004     3.091     2.144   7.08  4.92     49.41233   0  0.080
       674    911.5216   6366.1479  20.5248   1.2749  21.8923   2.3925  19.5872   0.8294     1.115     0.993 -74.40  7.53     49.48701   0  0.531
       675   4409.4941   6385.4673  19.5124   0.7998  21.0587   1.6298  18.4531   0.4913     1.518     1.489 -87.06  7.94     49.34319   0  0.289
       676   8233.5586   6465.1191  16.0591   0.1630  16.2186   0.1754  16.0469   0.1621     6.631     5.398   5.57  4.41     49.35089   0  0.029
       677   3996.4558   6700.4604  99.0000  99.0000  12.4844   0.0314  99.0000  99.0000   844.644    15.565   0.35  0.00     49.31613 145  0.017
       678     88.6474   6420.5493  20.5664   1.2996  21.7253   2.2154  99.0000  99.0000     1.194     0.978  66.68  6.99      49.5831   0  0.513
       679   5684.7266   6507.1743  15.2742   0.1136  15.3014   0.1150  15.2303   0.1113     6.948     3.847  88.54  3.50     49.17238   3  0.029
       680   8392.4336   6471.5845  17.8325   0.3689  18.1585   0.4286  17.7662   0.3579     5.201     3.115   8.23  4.80     49.30545   0  0.012
       681   5696.6948   6520.8218  15.5181   0.1270  15.5517   0.1290  16.0488   0.1622     6.001     2.986 -80.35  3.50       48.894   3  0.103
       682   2078.4795   6592.3149  99.0000  99.0000  10.5976   0.0132  15.4751   0.1246  1199.406    13.741   0.00  0.00   0.02902292  25  0.051
       683   4811.6543   6592.2896  99.0000  99.0000  12.2929   0.0288  15.5236   0.1274   277.743    13.125  -0.01  0.00    0.2935599   1  0.000
       684     31.6345   6482.1333  20.6329   1.3396  20.6606   1.3567  99.0000  99.0000     1.445     1.119  64.23  3.50     49.58713   0  0.648
       685   5898.3657   6527.1597  15.3147   0.1157  15.2585   0.1127  17.7447   0.3544     4.855     3.831  86.64  3.50     48.97844   2  0.026
       686   6079.6851   6537.5542  20.3622   1.1830  17.2814   0.2862  99.0000  99.0000     2.773     2.130 -88.91  3.50     48.91963   0  0.955
       687   5909.9985   6537.2773  99.0000  99.0000  17.1663   0.2714  99.0000  99.0000     2.930     2.251  78.38  0.00     48.85738   3  0.983
       688   8160.7349   6620.6699  18.4078   0.4808  18.6942   0.5485  99.0000  99.0000     4.364     2.134  78.35  3.50     49.25296   3  0.183
       689   8166.1973   6621.0093  17.9722   0.3934  18.7369   0.5594  99.0000  99.0000     4.406     2.524  12.78  5.29     49.25287   3  0.017
       690   4735.1851   6701.5029  15.3899   0.1198  15.4011   0.1204  15.5509   0.1290     5.728     3.257  84.25  3.50     49.32367   3  0.026
       691   5025.1841   6725.4746  14.8594   0.0938  14.8097   0.0917  14.9722   0.0988     7.851     4.143  62.53  3.50     49.30204   2  0.027
       692   4747.4561   6716.5220  16.0171   0.1599  15.9512   0.1551  16.6119   0.2103     6.571     2.324 -83.30  3.50     49.32552   3  0.071
       693   7984.3379   6669.1978  19.2148   0.6973  19.9009   0.9562  19.0425   0.6448     2.361     1.811  67.86  6.10     49.26571   0  0.140
       694   7230.3999   6698.5601  19.7501   0.8924  21.6210   2.1116  19.3596   0.7466     1.613     1.070 -70.56  8.41     49.27985   0  0.069
       695   5040.0991   6724.0352  18.3534   0.4688  18.2893   0.4552  99.0000  99.0000     1.978     1.615   7.05  3.50     49.30097   3  0.979
       696   6955.3994   6729.1343  20.1273   1.0617  21.8694   2.3674  19.6658   0.8602     1.255     0.997 -75.42  8.37     49.26955   0  0.259
       697   1458.7728   6763.3730  18.6818   0.5456  20.1198   1.0577  18.3514   0.4688     2.443     1.822  67.08  7.97     49.39642   0  0.157
       698   4045.4995   6782.3457  17.8094   0.3650  19.0446   0.6446  17.4310   0.3067     3.284     2.466  70.10  7.40     49.34591   2  0.186
       699   1449.2345   6778.1074  17.5860   0.3294  19.4068   0.7616  17.4780   0.3134     3.780     2.380  33.46  8.44     49.39718   0  0.000
       700   5440.9580   6773.3066  19.6211   0.8409  21.5405   2.0347  18.4793   0.4972     1.926     1.017  80.40  8.27     49.31167   0  0.080
       701    917.5513   6775.4648  19.1095   0.6643  21.3855   1.8945  17.7748   0.3593     1.565     1.232  57.65  8.91     49.43566   0  0.544
       702   7464.0698   7175.3921  13.7756   0.0569  13.8742   0.0596  14.4908   0.0792    23.174    16.409  82.04  3.85     49.90719   0  0.001
       703   4729.3633   6794.3853  17.5544   0.3246  18.6955   0.5489  17.4938   0.3157     4.646     2.665  25.23  7.34     49.33858   0  0.249
       704   4053.7344   6784.0483  17.9868   0.3961  20.2183   1.1067  17.5379   0.3222     2.875     1.777  13.32  8.88     49.34646   3  0.011
       705    202.8786   6795.7412  17.6825   0.3443  19.1655   0.6815  17.5436   0.3230     4.621     2.155  40.44  7.82     49.45462   0  0.001
       706   8448.2783   6882.9253  14.8120   0.0918  14.8109   0.0917  14.7631   0.0897     7.312     2.904 -85.60  3.50     49.25234   3  0.052
       707   8436.1846   6866.3940  14.9672   0.0986  14.9907   0.0996  14.9246   0.0967     7.295     3.701  89.41  3.50     49.25218   3  0.028
       708   6343.9746   6807.2417  19.0569   0.6485  19.8624   0.9394  18.9554   0.6194     2.973     2.019  18.97  6.21     49.27427   0  0.124
       709    502.7384   6852.7300  19.8615   0.9393  20.5912   1.3141  99.0000  99.0000     2.787     1.230  45.25  5.26     49.45037   0  0.001
       710   7256.1157   6888.2095  18.1747   0.4319  18.5593   0.5155  18.1359   0.4244     4.880     3.644 -11.90  4.60     49.28983   0  0.000
       711   7884.6182   6882.3271  19.8193   0.9213  20.6516   1.3511  19.5350   0.8097     2.160     1.366  54.85  6.35     49.30819   2  0.172
       712   7888.9292   6891.6323  19.6550   0.8542  20.7992   1.4462  19.4044   0.7622     2.426     1.194  84.09  7.05     49.30795   3  0.019
       713   8199.2666   6935.6396  18.2942   0.4563  18.4324   0.4862  18.2642   0.4503     4.368     2.685   0.46  3.91     49.25331   0  0.017
       714   1988.9915   6924.0391  19.3335   0.7366  20.1714   1.0831  19.0132   0.6362     2.322     1.854  56.53  6.31     49.40728   0  0.011
       715   2542.7969   7005.3125  14.9921   0.0997  15.0021   0.1002  14.9781   0.0991     5.032     3.698 -88.72  3.50     49.42984   3  0.124
       716   6023.4980   6961.5171  19.9883   0.9959  21.4226   1.9272  19.8378   0.9315     1.511     1.280  61.39  7.54     49.28712   0  0.010
       717   2552.4678   7015.5020  16.4380   0.1941  16.5789   0.2071  16.3756   0.1886     4.656     2.539 -81.81  3.50     49.42886   3  0.140
       718   8153.5879   6981.9585  19.4318   0.7706  19.8686   0.9421  19.3704   0.7503     2.328     1.926  41.16  5.34     49.27439   0  0.522
       719   2034.5244   6984.0103  20.7971   1.4453  21.8441   2.3399  20.3846   1.2005     1.177     0.978 -89.99  6.82     49.40289   0  0.568
       720   1530.9620   7022.5850  17.6229   0.3350  18.0960   0.4165  17.5966   0.3310     5.471     4.069  20.41  5.09     49.36559   0  0.001
       721    685.0554   6988.6499  20.3043   1.1518  21.1029   1.6633  19.8085   0.9189     1.484     1.259  76.31  6.10     49.44163   0  0.594
       722   2559.6230   7006.5171  17.9759   0.3940  18.0150   0.4012  17.7845   0.3609     2.663     2.053  44.62  3.50     49.42178   3  0.983
       723   2420.2578   7061.2466  15.1204   0.1058  15.1223   0.1059  15.1001   0.1048     6.274     3.465  59.68  3.50     49.44474   2  0.844
       724   5822.0161   7019.8174  18.8777   0.5971  19.3740   0.7502  18.7778   0.5707     3.135     2.395  72.37  5.23     49.31358   2  0.058
       725   5829.2603   7020.5923  19.0564   0.6484  20.1385   1.0668  19.0075   0.6345     3.104     1.756   5.85  6.87      49.3132   3  0.028
       726   4056.5317   7037.1245  18.7191   0.5551  19.7812   0.9049  18.6033   0.5265     2.953     2.295  37.00  6.87     49.35817   0  0.003
       727   7952.2148   7112.9263  15.0122   0.1006  14.9992   0.1000  14.9820   0.0993     6.894     4.619  84.09  3.50     49.32003   3  0.028
       728   2434.5549   7057.8706  18.2038   0.4376  18.2738   0.4520  17.8623   0.3741     2.449     2.067  34.97  3.51     49.44937   3  0.982
       729   2952.1260   7066.7700  18.4609   0.4929  19.3699   0.7488  18.4238   0.4847     4.076     2.734  -1.68  6.33     49.40605   0  0.000
       730   1862.4838   7072.7100  20.3987   1.2030  22.1528   2.6975  20.1792   1.0913     1.037     1.010   1.05  8.03     49.38755   0  0.329
       731    718.4543   7079.5439  19.2383   0.7050  20.2974   1.1478  19.2021   0.6942     3.319     1.473  55.57  6.73     49.42936   0  0.000
       732   7962.3398   7124.0161  16.0762   0.1643  16.2924   0.1815  16.0324   0.1610     6.387     3.136 -80.74  3.50     49.31834   3  0.030
       733    138.9209   7084.8125  20.5965   1.3177  21.7187   2.2087  19.5631   0.8203     1.237     1.015  63.31  6.84     49.46476   0  0.543
       734   1211.8441   7164.4663  14.8333   0.0927  14.8238   0.0923  14.8083   0.0916     6.142     3.305  85.36  3.50     49.40702   3  0.043
       735   4095.8047   7099.9824  19.7008   0.8723  20.5137   1.2680  19.2529   0.7107     1.835     1.633  62.09  6.32      49.3605   0  0.067
       736    929.7256   7109.1245  20.3490   1.1758  21.6844   2.1741  20.6612   1.3656     1.507     0.995  50.15  7.35     49.44165   0  0.185
       737   2858.7576   7124.6626  18.7992   0.5759  19.4486   0.7764  18.7535   0.5643     3.396     2.713  36.73  5.52     49.42899   0  0.000
       738     82.9801   7138.0757  18.6604   0.5402  19.4070   0.7617  18.4267   0.4853     3.235     2.435  27.89  6.12     49.40146   0  0.047
       739   4928.4014   7159.1816  17.8946   0.3797  18.2507   0.4472  17.8704   0.3755     5.494     3.952   8.96  4.71     49.33799   0  0.000
       740   8272.3994   7142.2598  20.0377   1.0188  21.3165   1.8352  19.6984   0.8733     1.561     1.269 -24.69  7.26     49.22555   0  0.001
       741   1222.1375   7174.7715  16.6064   0.2097  16.8356   0.2331  16.5671   0.2060     5.860     2.528  87.52  3.50     49.40707   3  0.036
       742   2696.8928   7157.2749  19.0826   0.6562  19.9674   0.9860  18.8802   0.5983     2.825     1.905 -80.73  6.50     49.43145   0  0.005
       743   7308.0181   7236.2183  15.0588   0.1028  15.0832   0.1040  15.0097   0.1005     7.246     3.669 -89.22  3.50     49.48561   3  0.029
       744   7320.0503   7252.6470  15.1202   0.1058  15.1319   0.1063  15.0686   0.1033     7.457     3.324 -84.81  3.50     49.49038   3  0.028
       745   2831.0554   7200.6240  17.4077   0.3034  17.7859   0.3610  17.2240   0.2788     5.082     2.859  75.23  5.09     49.45868   2  0.051
       746   1228.7458   7165.9663  18.1259   0.4222  18.1639   0.4297  18.0266   0.4036     2.609     1.896  29.94  3.50     49.40633   3  0.981
       747   5371.7417   7171.2598  19.1500   0.6768  19.5741   0.8226  18.8195   0.5818     2.568     1.763  81.03  5.13     49.35007   0  0.843
       748   5381.8633   7172.7251  20.2852   1.1417  21.3755   1.8858  19.4110   0.7645     1.274     1.187  20.82  7.25     49.35056   0  0.598
       749    117.6293   7180.2471  20.5675   1.3003  21.8454   2.3414  19.8978   0.9577     1.169     1.014  71.49  7.20     49.45282   0  0.592
       750     27.3117   7190.2568  99.0000  99.0000  17.4018   0.3025  99.0000  99.0000     4.071     2.554   9.09  0.00     49.18056   0  0.032
       751   5466.1997   7189.3262  20.2209   1.1085  21.3000   1.8213  19.3742   0.7516     1.842     1.096  54.68  6.77     49.33877   0  0.007
       752   2837.7590   7200.2695  17.5104   0.3180  18.2962   0.4567  17.2957   0.2881     5.180     2.066   7.35  5.85      49.4599   3  0.042
       753   6472.8398   7220.2266  19.4658   0.7829  20.3354   1.1681  19.4160   0.7663     2.405     1.740  47.98  6.37     49.27857   0  0.002
       754   2569.5781   7233.8989  20.5315   1.2789  21.5728   2.0652  20.0837   1.0439     1.328     1.040  77.18  6.81      49.4213   0  0.564
       755   4468.5327   7239.5825  18.9924   0.6294  19.3860   0.7544  18.8821   0.5988     3.566     2.052  20.37  4.66      49.3176   0  0.602
       756    545.9735   7269.8618  17.6489   0.3390  17.9046   0.3813  17.5969   0.3310     5.143     3.933 -12.48  4.43     49.43114   0  0.014
       757   5770.6636   7243.7764  19.2595   0.7118  19.8396   0.9296  19.0372   0.6433     2.374     1.741  71.91  5.91     49.33215   0  0.288
       758   4939.4326   7290.6011  17.5603   0.3255  17.9901   0.3966  17.4907   0.3152     5.121     3.363   6.44  5.50     49.34901   0  0.017
       759   2768.6670   7273.2539  20.5481   1.2887  22.2934   2.8779  20.5318   1.2857     1.023     0.890 -17.13  8.00     49.42693   0  0.446
       760   2882.4900   7291.5093  19.9985   1.0005  20.7040   1.3842  19.5939   0.8320     1.871     1.422  74.76  5.92     49.42202   0  0.329
       761   3212.8374   7307.0952  19.0893   0.6582  19.9210   0.9651  18.9465   0.6169     2.589     2.083  78.27  6.30      49.3849   0  0.001
       762    154.0502   7358.0718  15.1744   0.1084  15.1807   0.1088  15.1593   0.1077     6.162     3.420  62.26  3.50     49.47149   2  0.842
       763   1310.0042   7309.0117  20.1509   1.0733  21.0282   1.6070  19.6109   0.8386     1.717     1.264 -89.79  6.36     49.41127   0  0.152
       764   2229.8845   7311.0386  20.1891   1.0924  21.3556   1.8686  19.8905   0.9545     1.707     1.110  69.16  7.05     49.42366   0  0.024
       765   8325.8730   7352.4839  18.2982   0.4573  19.2409   0.7056  18.2574   0.4489     3.912     3.108  37.94  6.49     49.23086   0  0.000
       766   4439.0420   7342.0054  18.3928   0.4774  18.3993   0.4789  18.4360   0.4874     2.163     1.758 -86.10  3.50     49.31548   0  0.978
       767    168.5791   7354.9570  18.0014   0.3987  18.0252   0.4031  17.7940   0.3625     2.686     2.107  61.35  3.50     49.47039   3  0.983
       768   6636.8682   7357.2085  18.9928   0.6297  20.2730   1.1350  18.8544   0.5912     2.612     2.019  72.44  7.29     49.29123   0  0.001
       769   8455.3926   7355.0581  19.8468   0.9330  20.8411   1.4743  19.6554   0.8561     1.765     1.466  85.07  6.79     49.18987   0  0.142
       770   1058.9929   7357.6445  20.2951   1.1470  21.8828   2.3821  20.1744   1.0888     1.147     1.113  -0.72  7.83        49.44   0  0.641
       771    467.1920   7389.4932  18.8401   0.5868  19.1604   0.6799  18.8873   0.6002     3.646     2.317  17.59  4.49     49.45376   0  0.193
       772   2598.6406   7458.1987  14.7939   0.0910  14.7849   0.0906  14.7674   0.0899     5.447     4.244  87.18  3.50     49.41129   3  0.104
       773   6038.4590   7391.7305  20.3248   1.1628  21.6888   2.1784  19.5948   0.8324     1.256     1.033  87.84  7.50     49.31336   0  0.504
       774   2159.7163   7399.5566  19.0253   0.6391  19.7892   0.9083  18.7619   0.5665     2.628     2.167  15.19  6.19     49.41438   0  0.129
       775   2432.1206   7406.4961  18.9137   0.6070  19.5276   0.8052  18.7434   0.5617     2.880     1.958 -78.11  5.72     49.39782   0  0.218
       776   6633.3882   7407.2256  20.1454   1.0706  21.0753   1.6423  19.8581   0.9403     1.824     1.169  46.42  6.46     49.29034   0  0.576
       777   5659.9355   7408.4624  20.3779   1.1915  21.3846   1.8936  20.1623   1.0828     1.461     1.063  59.86  6.70     49.34033   0  0.593
       778   2440.8896   7407.7329  20.0714   1.0347  21.3274   1.8444  19.2437   0.7076     1.624     1.120   2.11  6.93     49.39519   1  0.674
       779   2608.3694   7468.7759  16.1693   0.1715  16.2809   0.1805  16.1359   0.1689     5.228     2.678 -78.38  3.50     49.41333   3  0.127
       780    642.4209   7437.8662  19.8633   0.9401  20.8099   1.4533  19.5786   0.8262     1.735     1.424 -72.59  6.79     49.46251   0  0.195
       781   6907.5942   7443.6704  18.9620   0.6208  19.9960   0.9990  18.8743   0.5967     2.490     2.374 -43.37  6.74     49.29516   0  0.002
       782   2411.2788   7476.5605  19.9394   0.9735  20.3742   1.1891  19.8126   0.9207     1.992     1.483  61.36  5.01     49.40069   0  0.754
       783   4578.1982   7523.8154  15.8400   0.1474  15.8463   0.1478  15.8241   0.1463     4.728     2.221 -87.16  3.50     49.34758   2  0.975
       784   5743.5601   7500.3623  19.3155   0.7304  19.7025   0.8727  19.0348   0.6425     2.322     1.745  76.20  5.13     49.34196   0  0.642
       785   4397.3755   7501.5659  20.6935   1.3779  21.8594   2.3565  20.0983   1.0511     1.111     0.983  49.72  7.00     49.32156   0  0.562
       786   4585.1836   7520.4399  16.6678   0.2157  17.1081   0.2642  16.6201   0.2111     5.138     1.133   0.69  3.50     49.34649   3  0.997
       787   7927.7705   7578.5435  17.3453   0.2948  17.4787   0.3134  17.3201   0.2914     5.773     4.293  15.32  3.90     49.31985   0  0.013
       788   2096.7720   7558.0684  18.7000   0.5501  19.0370   0.6423  18.6806   0.5456     3.847     2.932 -18.67  4.31     49.41843   0  0.011
       789   1072.8809   7607.6733  15.0467   0.1023  15.0541   0.1026  15.0354   0.1017     6.858     3.405  60.30  3.50     49.43432   2  0.833
       790   3279.4604   7570.9570  19.5934   0.8302  20.0980   1.0470  19.2821   0.7203     2.126     1.607  71.77  5.53     49.39705   0  0.717
       791   3559.8767   7593.6006  20.3515   1.1772  21.6968   2.1866  19.9801   0.9950     1.329     1.045  13.33  7.41     49.37985   0  0.574
       792   6115.9873   7596.0225  20.3159   1.1580  21.4890   1.9870  19.5960   0.8328     1.231     1.206 -79.26  7.00     49.31678   0  0.569
       793   1087.3945   7604.3804  17.7859   0.3610  17.7980   0.3630  17.6116   0.3333     2.388     1.988  46.61  3.50     49.43308   3  0.983
       794   8477.1436   7605.6509  20.2944   1.1466  21.3028   1.8237  19.8487   0.9362     1.425     1.184 -72.28  6.77     49.18648   0  0.634
       795   5115.1431   7646.0820  20.4945   1.2573  21.9882   2.5005  20.4605   1.2437     1.315     0.793  67.79  7.72     49.33569   0  0.472
       796     11.3793   8251.4600  13.4899   0.0499  12.2279   0.0279  15.1563   0.1075   223.682     7.325  89.97  3.50    -16.96651  25  0.005
       797    917.3749   7670.4238  19.0055   0.6334  20.1827   1.0888  18.7487   0.5630     2.797     2.045  21.94  6.99     49.47185   0  0.002
       798   2625.2417   7685.1382  20.0394   1.0196  21.1470   1.6974  19.8167   0.9224     1.897     1.106  54.92  6.81     49.39771   0  0.074
       799   5432.4048   7689.9150  20.4950   1.2576  21.9254   2.4292  19.6617   0.8586     1.205     0.923 -80.09  7.66      49.3154   0  0.661
       800   5242.7930   7699.9883  20.5952   1.3170  21.4782   1.9771  19.8902   0.9544     1.242     1.091  88.52  6.60     49.34415   0  0.591
       801   3571.6362   7846.1035  15.2058   0.1100  15.3197   0.1160  15.4265   0.1218    17.131     5.759  44.68  3.80     49.44186   0  0.026
       802   3555.3792   7701.6172  20.3980   1.2026  22.2188   2.7807  20.3268   1.1687     1.065     0.908 -44.74  8.26     49.39415   0  0.395
       803   7717.4790   7705.3838  19.6847   0.8659  21.1891   1.7307  19.4521   0.7792     1.552     1.462  30.09  7.78     49.31441   0  0.006
       804   4466.0020   7741.9854  17.6802   0.3440  18.2908   0.4556  17.6597   0.3408     5.502     3.980  23.90  5.55     49.35268   0  0.000
       805   2231.8616   7724.8408  20.1089   1.0527  21.3318   1.8482  19.8243   0.9257     1.508     1.266  69.95  7.15     49.40213   0  0.378
       806   2996.7312   8369.9990  20.0573   1.0278  20.2171   1.1061  19.7189   0.8816     2.231     1.575  62.77  4.06     49.45111   0  0.920
       807   8483.7500   8658.2842  13.7049   0.0551  13.1998   0.0437  13.7824   0.0571    21.653    21.223 -39.96  3.50     10.92453  18  0.004
       808   8512.8350   8096.0889  14.5141   0.0801  12.3346   0.0293  16.0833   0.1648   243.177     9.610 -89.27  3.50     24.62193  18  0.000
       809    348.7997   8704.5107  14.3887   0.0756  12.6497   0.0339  16.0237   0.1604   152.770     9.192   0.25  3.50     24.83148  19  0.029
       810   3529.0459   8715.8428  18.1804   0.4330  18.2616   0.4494  99.0000  99.0000     4.710     1.916  36.72  3.50     49.49717  16  0.914
       811   5368.1309   8705.7080  18.7740   0.5693  19.7630   0.8974  18.6137   0.5290     3.096     2.030  39.63  6.60     49.48264  18  0.058
       812   5362.8135   8702.1875  19.5525   0.8147  20.5139   1.2681  18.9242   0.6105     2.071     1.524 -68.73  6.46     49.47815  19  0.493
       813   3884.3252   8707.9346  19.8700   0.9431  20.9060   1.5191  99.0000  99.0000     1.702     1.494 -57.13  6.81     49.48563  16  0.012
       814    846.2476   8700.1084  18.4367   0.4872  18.7237   0.5560  99.0000  99.0000     4.583     2.429  37.09  3.50     49.31779   0  0.203
       815   6058.5591   8686.0605  18.1139   0.4200  18.6529   0.5382  17.9552   0.3905     4.657     2.402  38.78  5.81     49.37097   0  0.360
       816   3260.9810   8664.1611  17.3557   0.2961  17.3770   0.2990  17.3202   0.2914     3.811     1.892 -86.67  3.50     49.49347   2  0.980
       817   3267.7717   8661.5654  18.1996   0.4368  18.5413   0.5112  18.1038   0.4182     4.023     1.171   3.84  3.50     49.49272   3  0.976
       818   3023.1677   8668.1172  19.2967   0.7240  19.4290   0.7694  19.2129   0.6977     2.064     1.553  82.85  3.85     49.51071   0  0.957
       819   7413.0669   8664.1484  20.8472   1.4786  20.9745   1.5677  99.0000  99.0000     1.368     1.110  84.38  3.50     49.39339   0  0.527
       820   1291.5785   8636.6797  18.1239   0.4218  18.1550   0.4279  18.0645   0.4107     3.279     1.874  89.76  3.50     49.51723   2  0.970
       821   1299.2358   8635.4492  19.9076   0.9592  20.2177   1.1064  19.5216   0.8047     2.440     0.949   3.94  4.01     49.51418   3  0.878
       822     82.5564   8678.0576  12.5877   0.0330  12.3377   0.0294  13.4183   0.0483    42.517    28.015  81.03  3.50    0.0190267  19  0.122
       823   6372.9092   8635.3486  21.2506   1.7805  21.5871   2.0787  22.3868   3.0955     1.447     0.731  85.74  3.76     49.35077   0  0.568
       824   3738.0139   8619.1064  20.1770   1.0862  20.8519   1.4817  20.1603   1.0817     1.713     1.251  83.85  5.79     49.46148   0  0.649
       825   8283.9648   8615.2617  19.1969   0.6915  19.1942   0.6906  99.0000  99.0000     2.226     1.493  83.11  3.50     49.37849   0  0.966
       826   5050.1450   8611.0312  17.8124   0.3655  17.8410   0.3703  17.7479   0.3549     3.477     2.861 -23.10  3.50     49.42625   0  0.940
       827   6427.4360   8610.4336  18.6328   0.5333  18.9166   0.6077  18.5227   0.5073     6.719     1.645 -87.68  3.50     49.34476   3  0.978
       828   6413.7007   8603.0918  16.1918   0.1733  16.1979   0.1737  16.1620   0.1709     4.011     1.848 -87.72  3.50     49.34528   2  0.983
       829   6421.0225   8600.4951  16.9916   0.2504  17.2283   0.2792  16.9212   0.2425     3.294     1.144   2.38  3.50     49.34393   3  0.992
       830   3957.1667   8600.1377  18.4687   0.4945  18.5006   0.5017  18.3876   0.4767     3.111     2.800 -43.99  3.50     49.41191   0  0.850
       831   5857.4956   8601.3574  20.5817   1.3089  21.5812   2.0731  19.7444   0.8920     1.344     1.013  84.40  6.74      49.3995   0  0.606
       832   3823.7856   8595.0283  18.7027   0.5508  19.0627   0.6500  18.6793   0.5453     4.324     2.355  40.33  4.66     49.44902   0  0.000
       833   8320.0020   8599.0938  19.7606   0.8965  19.7357   0.8861  99.0000  99.0000     5.689     0.866  -1.33  3.91     49.36756   0  0.005
       834   2769.7002   8597.3291  20.4094   1.2087  20.7681   1.4256  20.2642   1.1352     1.435     1.301  74.25  4.69     49.50351   0  0.629
       835    222.4625   8596.8037  20.1595   1.0775  21.0561   1.6278  20.1121   1.0578     1.396     1.377  22.87  6.51     49.62191   0  0.662
       836    378.5540   8581.3027  17.5532   0.3243  17.5782   0.3281  17.3845   0.3002     3.431     1.873  87.33  3.50     49.55537   2  0.977
       837    387.9406   8580.0166  19.2059   0.6943  19.3265   0.7339  18.5432   0.5121     2.662     1.201   4.83  3.54      49.5524   3  0.970
       838   6260.1416   8577.6758  20.0525   1.0255  20.3551   1.1787  19.2450   0.7081     2.256     1.099   4.71  4.17     49.36874   3  0.832
       839   2825.5732   8561.7900  16.2060   0.1744  16.5105   0.2007  16.1551   0.1704     4.606     1.324   1.70  3.50     49.50442   3  0.984
       840   7466.3174   8571.5830  19.7726   0.9017  21.1760   1.7203  19.0897   0.6590     1.974     1.144  59.53  7.40     49.37254   0  0.009
       841    603.6181   8560.0078  18.4942   0.5003  18.6153   0.5290  18.2884   0.4553     3.340     2.674  -6.65  4.18     49.52102   0  0.774
       842   5821.1157   8561.3477  19.5760   0.8234  19.7221   0.8806  19.3025   0.7272     1.997     1.513  81.88  4.11     49.36971   0  0.929
       843   2786.7134   8555.9580  20.2483   1.1223  20.5462   1.2871  19.7501   0.8944     1.581     1.358  86.61  4.48     49.50256   0  0.638
       844   6847.0015   8544.9980  20.0841   1.0407  21.6495   2.1394  19.5481   0.8146     1.253     1.229  87.51  7.63     49.34463   0  0.051
       845   8376.8906   8531.3369  18.0678   0.4111  18.2904   0.4554  17.7529   0.3557     3.376     1.243   1.71  3.50     49.33267   3  0.979
       846   6036.9883   8540.7715  20.2342   1.1150  20.5776   1.3058  20.0853   1.0448     1.667     1.226  75.56  4.82     49.35428   0  0.576
       847   8350.0596   8540.9062  20.3267   1.1638  21.1526   1.7018  19.2243   0.7013     1.338     1.248  46.45  6.40     49.35261   0  0.617
       848   1823.8186   8536.3994  18.7225   0.5559  19.4093   0.7625  18.5461   0.5128     2.671     2.302  54.74  6.59     49.50527   2  0.031
       849   3249.6902   8492.7344  15.2965   0.1147  15.3472   0.1174  15.2210   0.1108     6.869     3.988  89.40  3.50     49.46754   3  0.029
       850   4455.5845   8518.3848  20.5925   1.3153  21.7997   2.2926  19.9233   0.9691     1.113     0.981  45.17  7.31     49.40324   0  0.516
       851   1994.0333   8512.2891  20.0672   1.0325  20.3128   1.1559  19.7489   0.8939     1.707     1.422  70.09  4.51     49.49024   0  0.702
       852   7908.0376   8510.4170  18.8860   0.5994  19.5384   0.8092  18.6168   0.5298     2.603     2.169  25.04  6.08     49.36934   0  0.154
       853   3719.3303   8507.6475  20.3537   1.1781  20.7350   1.4040  20.0293   1.0179     1.602     1.254  76.84  4.79      49.4125   0  0.573
       854   5906.2832   8493.5254  18.4292   0.4855  18.4716   0.4951  18.3094   0.4598     2.754     1.913  84.57  3.50     49.34443   2  0.980
       855   5914.7207   8493.4199  19.9239   0.9665  20.3182   1.1588  19.4652   0.7840     2.183     1.099  16.58  3.83     49.34413   3  0.895
       856   1485.2365   8498.8359  19.5829   0.8263  20.6766   1.3668  19.3832   0.7548     1.866     1.683  14.23  7.00     49.49157   0  0.003
       857    814.5209   8493.9756  18.1144   0.4200  18.1561   0.4281  18.0729   0.4123     3.216     2.818 -36.14  3.50     49.49578   0  0.697
       858   4241.9546   8475.5049  19.2803   0.7185  19.1376   0.6728  99.0000  99.0000     2.471     1.218   2.81  3.50       49.119   3  0.959
       859   3605.7554   8482.3584  20.2836   1.1409  21.0619   1.6322  20.1599   1.0816     1.501     1.292 -56.88  6.11     49.40733   0  0.613
       860   1817.2040   8481.3984  20.0119   1.0067  20.6501   1.3502  19.5661   0.8214     1.882     1.377  55.10  5.76     49.49015   0  0.693
       861    783.7452   8478.5771  19.8185   0.9207  20.0317   1.0156  19.6353   0.8481     1.857     1.547  77.32  4.02     49.49332   0  0.874
       862     43.7189   8075.9072  11.4248   0.0193  11.4421   0.0194  14.2539   0.0710   226.943    16.524  88.30  3.50     8.553542  19  0.001
       863   3841.8687   8468.8330  19.4375   0.7727  20.2303   1.1129  19.3099   0.7296     2.156     1.849  49.48  6.15     49.40047   0  0.053
       864   4919.3467   8440.3047  19.9377   0.9727  20.2903   1.1440  19.8018   0.9161     1.799     1.421  76.92  4.81     49.39542   0  0.845
       865   7301.5273   8424.3271  16.4584   0.1959  16.4703   0.1970  16.4377   0.1941     4.876     3.138 -25.72  3.50     49.38143   0  0.797
       866    206.9499   8411.5137  17.1562   0.2701  17.1996   0.2756  16.8650   0.2363     3.799     1.875  87.92  3.66     49.53973   2  0.981
       867    214.4061   8409.2568  17.7585   0.3565  17.9906   0.3967  17.4271   0.3061     3.686     1.392   4.82  3.50     49.53944   3  0.982
       868   2043.2247   8414.1074  19.6270   0.8429  19.7721   0.9011  19.6077   0.8374     1.907     1.526  76.97  3.75     49.49042   0  0.934
       869   4596.5464   8393.6943  14.8464   0.0932  14.8460   0.0932  14.8358   0.0928     7.202     4.434  56.80  3.50     49.40453   0  0.025
       870   7752.3198   8408.5703  19.2051   0.6943  20.3825   1.1937  19.0502   0.6471     2.377     1.923  -1.63  7.14     49.33269   0  0.001
       871   1230.0065   8408.2061  19.8927   0.9530  20.7614   1.4213  19.5978   0.8335     2.179     1.287  49.87  6.30     49.45621   0  0.003
       872   8385.5303   8086.4878  16.1950   0.1735  16.2979   0.1819  16.1281   0.1683     6.904     2.859 -77.33  3.55     49.29586   3  0.029
       873   2819.1497   8564.5645  15.8122   0.1455  15.8245   0.1463  15.7779   0.1432     4.128     1.834 -89.87  3.50     49.50453   2  0.987
       874   2984.4744   8014.0376  20.3541   1.1786  21.3420   1.8569  20.2577   1.1318     1.689     1.009 -89.90  6.58     49.40085   0  0.570
       875   6427.3335   8620.5537  19.9214   0.9653  20.0307   1.0151  20.0233   1.0151     1.451     1.307  -8.17  3.50     49.34423   0  0.730
       876   5289.7251   7937.4512  19.6703   0.8601  20.3738   1.1889  19.6463   0.8525     1.906     1.705  45.02  6.04      49.3623   0  0.303
       877   8226.5586   8503.8682  20.4405   1.2264  21.5550   2.0483  20.1824   1.0929     1.317     1.042  76.71  6.92     49.37133   0  0.500
       878   7362.5566   7861.0884  20.6629   1.3586  21.5973   2.0885  19.9305   0.9724     1.222     0.988  73.68  6.50     49.29247   0  0.675
       879    492.6497   7955.8828  20.1516   1.0737  21.3595   1.8719  20.0450   1.0254     1.626     1.171  29.63  7.11     49.47418   0  0.001
       880   5652.5850   8646.1035  20.6485   1.3497  21.6356   2.1257  19.7864   0.9096     1.242     0.969  77.22  6.76     49.40018   0  0.465
       881    750.0715   8101.7051  19.4581   0.7801  20.3204   1.1600  19.1198   0.6683     2.158     1.597  66.18  6.52     49.49562   0  0.218
       882   7643.0640   8061.1450  20.1594   1.0774  22.1617   2.7086  19.5713   0.8234     1.339     0.779 -82.34  8.57     49.31717   0  0.115
       883   2485.8062   8104.7578  20.3254   1.1630  21.0364   1.6131  20.0378   1.0220     1.816     1.147  54.61  5.69     49.44141   0  0.689
       884   1950.8428   8334.9609  15.6525   0.1352  15.6581   0.1355  15.6283   0.1337     5.170     3.732 -52.26  3.50     49.48396   0  0.364
       885   2979.4409   7864.8770  20.3258   1.1632  20.8719   1.4954  20.3341   1.1727     1.668     1.329  54.59  5.31     49.43145   0  0.653
       886   5781.4819   7928.2612  20.1211   1.0587  21.2513   1.7809  19.6153   0.8403     1.421     1.300  87.72  7.19     49.34897   0  0.684
       887    171.3357   8268.8047  17.8705   0.3755  19.2217   0.6994  17.9381   0.3874     3.878     2.790 -77.81  7.63     49.55243   0  0.000
       888   8346.5146   8418.1309  18.1867   0.4344  18.8048   0.5772  18.1643   0.4300     5.004     3.037  30.48  5.53     49.32588   0  0.000
       889   2707.3635   8142.0073  20.0556   1.0272  20.9115   1.5230  19.6355   0.8482     1.905     1.286  57.63  6.25     49.45259   0  0.308
       890   7980.8457   8026.1733  18.8053   0.5775  19.3774   0.7514  18.6170   0.5299     3.536     2.203  17.12  5.51     49.32624   0  0.312
       891   3894.9250   8390.2324  18.4607   0.4928  19.1487   0.6763  18.4431   0.4890     3.967     2.934  53.98  5.65     49.39788   0  0.000
       892   2528.2043   8343.8154  20.3066   1.1530  21.0507   1.6237  20.0054   1.0067     1.620     1.193  86.24  5.90     49.48056   0  0.686
       893    159.5031   7762.7080  18.8697   0.5949  19.5136   0.8000  18.7293   0.5580     2.453     2.045  79.43  6.40     49.50772   0  0.344
       894   6739.7310   8472.3877  19.9908   0.9967  20.2238   1.1095  20.2442   1.1247     1.810     1.382  83.95  4.14     49.32746   0  0.733
       895   6967.6089   8126.3350  18.5351   0.5099  19.0554   0.6478  18.4674   0.4945     4.506     2.815  61.10  5.05      49.3047   0  0.000
       896   5082.9712   8583.9941  20.7590   1.4199  21.1679   1.7138  20.3808   1.1984     1.823     0.788  10.25  4.78     49.41467   3  0.709
       897   4786.9673   8412.3555  17.7753   0.3594  18.6640   0.5410  17.7877   0.3615     5.886     3.279  38.08  6.41     49.39348   0  0.000
       898   3103.1265   8531.1201  20.5921   1.3151  21.9661   2.4752  19.8902   0.9544     1.315     0.852 -44.95  7.47      49.4665   0  0.484
       899   3575.8848   8698.2578  20.5026   1.2618  20.9745   1.5678  19.9831   0.9964     1.428     1.210  70.47  4.93     49.48501   0  0.516
       900    991.8838   8132.5630  18.2718   0.4516  18.4454   0.4891  18.1725   0.4316     4.147     2.048  84.37  3.70     49.46787   2  0.154
       901   1635.3466   8163.9380  19.1429   0.6747  19.4853   0.7896  19.0383   0.6436     3.400     2.775  -2.14  5.17     49.48264   0  0.136
       902   7170.9487   8029.0093  19.8147   0.9193  20.8167   1.4579  19.7565   0.8971     1.816     1.511  57.09  6.65     49.30884   0  0.041
       903   5662.6602   8054.2871  19.0643   0.6508  20.4536   1.2334  18.7707   0.5688     2.416     1.827  75.53  7.63     49.34156   0  0.002
       904   4069.9094   8148.8315  18.9959   0.6305  19.7901   0.9087  18.9225   0.6101     3.149     1.902  31.93  6.26      49.4202   0  0.010
       905    670.6129   7951.3965  18.9950   0.6302  19.5342   0.8076  19.0513   0.6475     3.251     2.368  24.14  5.06     49.49598   0  0.000
       906   4749.3911   8064.8521  19.4592   0.7805  20.3761   1.1902  19.1985   0.6930     2.148     1.606  89.34  6.56     49.41543   0  0.113
       907    997.9268   8132.3906  18.2554   0.4482  18.8061   0.5775  18.2021   0.4376     4.332     1.917   6.41  4.24     49.46803   3  0.126
       908    176.1516   8300.9443  18.2528   0.4478  20.1586   1.0768  17.8829   0.3777     3.283     1.847  43.50  8.38     49.55231   0  0.005
       909   6020.3477   8709.5723  19.2187   0.6985  19.6149   0.8382  99.0000  99.0000     3.631     1.899  35.53  3.50     49.38918  16  0.531
       910   6076.6714   8449.0264  19.2324   0.7029  19.2398   0.7052  18.9367   0.6141     2.511     1.534  81.82  4.55     49.33107   0  0.968
       911   1145.8357   8077.5610  19.5326   0.8072  19.9153   0.9625  19.1467   0.6766     2.205     1.687  79.22  5.05     49.45329   0  0.514
       912    108.6872   8030.6060  18.9755   0.6244  18.6699   0.5424  99.0000  99.0000     2.612     2.040 -87.66  3.50     49.49957   0  0.973
       913   8369.5391   8533.5283  17.1211   0.2658  17.1436   0.2686  16.9741   0.2485     3.745     1.839 -87.62  3.50      49.3379   2  0.980
       914   6188.8672   8184.7861  20.1686   1.0821  21.5452   2.0390  19.6933   0.8712     1.360     1.140 -79.58  7.52     49.33737   0  0.467
       915   6153.8457   8093.0850  19.5491   0.8134  20.0895   1.0430  19.3907   0.7574     2.234     1.682  75.10  5.55     49.33018   0  0.255
       916   8373.7783   8072.5845  14.7896   0.0908  14.7781   0.0904  14.7538   0.0894     6.135     4.701  85.42  3.50     49.29543   3  0.020
       917    596.0212   8176.5894  19.6088   0.8362  20.9241   1.5319  19.3321   0.7372     2.255     1.508 -54.67  7.07     49.47495   0  0.001
       918   5162.5576   8482.8887  19.4576   0.7797  19.5926   0.8296  19.2871   0.7220     2.232     1.535  80.11  3.97     49.36991   0  0.956
       919   2997.1787   8358.9209  20.2816   1.1397  20.5054   1.2631  19.7822   0.9078     2.955     0.869  88.90  4.16     49.45217   1  0.693
       920   1734.1548   8015.6401  18.5243   0.5074  18.9281   0.6109  18.3902   0.4772     4.116     2.651  14.48  4.99     49.46439   0  0.198
       921   1722.4622   8424.3096  16.2152   0.1751  16.2253   0.1760  16.2031   0.1742     4.846     3.266 -33.48  3.50       49.478   0  0.643
       922   6435.0298   8684.0918  18.6631   0.5409  19.7409   0.8883  18.4856   0.4987     3.013     2.438  58.49  6.90     49.21526   0  0.002
       923   3833.3140   7865.0029  16.3577   0.1870  16.5445   0.2038  16.3439   0.1859     6.742     4.916 -22.11  4.60     49.40931   0  0.028
       924   5749.8779   8195.5449  20.4948   1.2575  22.0500   2.5728  20.3854   1.2010     1.443     0.784  31.79  7.87     49.35651   0  0.449
       925   4378.4883   8672.3760  20.4751   1.2460  20.9926   1.5809  19.6882   0.8691     1.440     1.203  82.82  5.60     49.34183   0  0.514
       926   4234.6118   8478.0879  17.7174   0.3498  17.7562   0.3561  99.0000  99.0000     3.793     1.890 -85.95  3.55     49.15342   2  0.965
       927   1586.4213   8667.5586  16.0490   0.1622  16.0603   0.1631  16.0395   0.1615     4.931     3.364 -29.99  3.50      49.5744   0  0.457
       928   6250.9697   8578.0732  18.0727   0.4120  18.1445   0.4258  17.9311   0.3862     3.093     1.966  86.45  3.68     49.36692   2  0.980
       929    354.0167   8246.8047  20.3173   1.1588  21.3850   1.8940  19.9307   0.9725     1.289     1.272  51.38  6.81     49.50527   0  0.649
       930   6742.2461   8124.4600  19.4474   0.7763  20.1533   1.0741  19.1617   0.6813     2.451     1.890 -14.95  5.86     49.28789   0  0.002
       931   1825.9313   8330.9033  19.2486   0.7082  19.5454   0.8118  19.1855   0.6889     2.271     1.912  70.28  5.45     49.49092   0  0.364
       932   3261.9932   8506.1055  14.7323   0.0885  14.7268   0.0882  14.6771   0.0863     7.591     2.624 -88.63  3.50     49.46917   3  0.146
       933   6816.9526   7957.0659  19.2456   0.7073  19.6904   0.8679  18.9552   0.6194     2.544     2.181  72.18  5.44     49.28058   0  0.136
       934   3874.2073   8333.0078  17.5247   0.3201  17.7126   0.3490  17.4629   0.3112     5.043     3.306   0.11  4.17     49.38697   0  0.026
       935   4823.9170   8011.2163  15.4184   0.1213  15.4447   0.1228  15.3741   0.1189     6.707     3.503  85.83  3.50     49.41935   3  0.029
       936   6522.0195   8138.5103  20.8088   1.4531  22.1529   2.6976  20.4522   1.2389     1.091     0.801  89.51  7.43     49.29107   0  0.496
       937   5183.6230   8325.3760  15.2976   0.1148  15.3038   0.1151  15.2841   0.1141     5.480     3.666 -44.19  3.50     49.39809   0  0.751
       938   5075.6699   8583.8916  19.1860   0.6880  19.2480   0.7079  19.0918   0.6597     2.593     1.576  79.95  3.50       49.415   2  0.966
       939   1594.2076   8204.5459  19.4003   0.7596  20.0300   1.0148  19.2023   0.6942     2.552     1.887  -9.23  5.71     49.47118   0  0.002
       940   1178.6506   8091.8135  18.8220   0.5820  19.6294   0.8438  18.6179   0.5301     2.929     2.198  36.63  6.32     49.45713   0  0.001
       941   6945.3457   7800.3545  18.6396   0.5351  19.2513   0.7090  18.5160   0.5057     3.336     2.442  14.92  5.70     49.30151   0  0.386
       942   1862.3929   8095.7368  20.0011   1.0018  21.3701   1.8811  19.6789   0.8654     1.634     1.196 -87.91  7.43     49.46788   0  0.051
       943   1824.8544   7845.2412  19.7651   0.8986  20.6953   1.3786  19.6571   0.8567     2.534     1.218  78.27  6.37     49.44324   0  0.001
       944   4142.3223   8682.1670  18.2815   0.4536  18.3125   0.4601  18.1614   0.4294     3.076     2.769 -52.70  3.53      49.4281   0  0.858
       945   1930.9479   8672.1826  19.1518   0.6774  19.6844   0.8655  18.8893   0.6008     2.437     1.934  57.90  5.68     49.55269   0  0.164
       946   5317.4585   8557.0537  20.0086   1.0051  20.4879   1.2530  19.8177   0.9228     1.831     1.431  81.98  5.24     49.37984   0  0.648
       947   5109.4360   8271.5215  19.6790   0.8637  20.8188   1.4593  19.4313   0.7718     1.955     1.436  72.57  7.02      49.3975   0  0.062
       948   4075.5745   8035.5249  15.4707   0.1243  15.5244   0.1274  15.4010   0.1204     6.886     3.963  87.63  3.50     49.45438   3  0.029
       949   1021.5773   8302.9336  20.4706   1.2435  21.5222   2.0176  20.1668   1.0850     1.323     1.034  76.42  6.79     49.46203   0  0.568
       950   4087.9504   8049.5737  14.8872   0.0950  14.8806   0.0947  14.8337   0.0927     7.844     2.656 -87.97  3.50     49.45094   3  0.051
       951   7123.4395   8696.8867  99.0000  99.0000  12.0989   0.0263  16.6875   0.2177   406.104     7.379  -0.71  0.00     30.83588  16  0.000
       952   4835.6802   8026.5317  15.5238   0.1274  15.5348   0.1280  15.4657   0.1240     7.330     2.795 -83.42  3.50     49.43153   3  0.025
       953   6677.6265   8388.1689  18.2186   0.4407  18.7061   0.5516  18.0302   0.4042     4.163     2.828  10.62  5.48     49.32636   0  0.193
       954   6671.7661   8349.0293  19.3161   0.7306  19.9698   0.9870  18.7918   0.5744     2.146     1.789  78.07  6.09     49.32629   0  0.233
       955    312.5515   8391.6299  19.0228   0.6382  19.0540   0.6474  18.7936   0.5749     2.566     1.641  78.85  4.50     49.50949   0  0.969
       956   3165.3464   8023.7031  20.2224   1.1092  21.0387   1.6149  19.8427   0.9336     1.672     1.257 -84.10  6.12     49.40683   0  0.533
