#   1 NUMBER                 Running object number                                     
#   2 X_IMAGE                Object position along x                                    [pixel]
#   3 Y_IMAGE                Object position along y                                    [pixel]
#   4 MAG_AUTO               Kron-like elliptical aperture magnitude                    [mag]
#   5 MAGERR_AUTO            RMS error for AUTO magnitude                               [mag]
#   6 MAG_ISO                Isophotal magnitude                                        [mag]
#   7 MAGERR_ISO             RMS error for isophotal magnitude                          [mag]
#   8 MAG_APER               Fixed aperture magnitude vector                            [mag]
#   9 MAGERR_APER            RMS error vector for fixed aperture mag.                   [mag]
#  10 A_IMAGE                Profile RMS along major axis                               [pixel]
#  11 B_IMAGE                Profile RMS along minor axis                               [pixel]
#  12 THETA_IMAGE            Position angle (CCW/x)                                     [deg]
#  13 KRON_RADIUS            Kron apertures in units of A or B                         
#  14 BACKGROUND             Background at centroid position                            [count]
#  15 FLAGS                  Extraction flags                                          
#  16 CLASS_STAR             S/G classifier output                                     
         1   8470.1445     46.0818  15.9762   0.0952  15.3292   0.0706  15.5654   0.0787    16.753    13.368  24.92  3.50     4.477073  19  0.000
         2   8498.2246     10.3726  16.2720   0.1090  16.2671   0.1088  16.3586   0.1135    17.089     7.094   4.58  3.50    -3.407958  27  0.000
         3    488.5099     56.1303  12.8469   0.0225  12.6610   0.0207  15.6730   0.0827   233.117    11.010  -0.92  3.50     4.979547  17  0.000
         4   7588.8750     39.7093  17.0339   0.1548  17.0473   0.1558  17.0518   0.1562     2.321     2.149 -84.02  3.50     13.59526   0  0.983
         5    410.4974     10.5250  17.7834   0.2230  13.4841   0.0302  16.3875   0.1150   234.517     6.457   0.00  3.50    -4.696424  24  0.000
         6   5508.6440     31.2477  18.7798   0.3460  18.8351   0.3549  18.7948   0.3495     2.019     1.930 -84.77  3.50     13.71346   0  0.971
         7   6485.4106     38.4052  20.1896   0.6630  21.7715   1.3724  20.3286   0.7158     1.468     0.965 -84.97  7.78     13.75895   0  0.166
         8   5887.8037     70.1511  14.9902   0.0604  14.9820   0.0602  14.9584   0.0595     2.479     2.332 -81.73  3.50     13.71439   0  0.991
         9   2825.1001     49.4178  20.5545   0.7837  20.8704   0.9061  20.4134   0.7451     1.475     1.231 -76.78  3.87     13.80155   0  0.665
        10   6749.5083     61.4675  20.9111   0.9240  21.6181   1.2786  20.5563   0.7975     1.071     1.065 -47.91  5.32     13.72169   0  0.482
        11   6874.1450     65.4731  20.8759   0.9093  21.6316   1.2866  20.7558   0.8773     1.083     0.994  16.23  5.87     13.69973   0  0.523
        12   6658.4868     65.7436  20.8557   0.9011  21.8806   1.4430  21.2861   1.1341     1.020     0.999  -7.54  6.79     13.72194   0  0.580
        13   6458.7695     69.8755  19.7038   0.5300  20.5002   0.7641  19.3601   0.4545     1.723     1.649 -67.38  6.40     13.74126   0  0.111
        14   2211.7805     71.9965  20.3683   0.7195  20.6111   0.8041  20.2832   0.7006     1.581     1.391 -87.71  4.53     14.23153   0  0.768
        15   3945.6694     73.6284  18.9499   0.3742  19.0156   0.3856  18.8798   0.3635     1.981     1.855 -72.03  3.50     13.67163   0  0.972
        16   5411.4619     87.5536  19.6272   0.5117  21.3053   1.1072  19.2285   0.4275     1.616     1.274 -45.94  8.02     13.70553   0  0.070
        17   2946.8057    101.0780  16.3834   0.1147  16.3879   0.1150  16.3384   0.1124     2.338     2.220 -81.85  3.50     13.80167   0  0.984
        18   2900.3958    152.1822  13.8057   0.0350  13.7889   0.0347  13.7721   0.0345     3.535     3.305 -75.33  3.50     13.83267   0  1.000
        19   5715.9897    105.9105  18.9207   0.3692  18.9860   0.3804  18.9715   0.3794     1.923     1.847 -75.77  3.50     13.72257   0  0.971
        20   4403.2021    118.3476  18.0043   0.2420  18.0325   0.2452  17.9458   0.2360     2.181     2.028 -82.35  3.50     13.67375   0  0.981
        21   7034.1680    125.3033  20.3962   0.7292  21.6021   1.2693  20.2827   0.7004     1.354     1.110 -64.54  6.82     13.70713   0  0.022
        22     65.7754    199.0220  13.5552   0.0312  13.5377   0.0309  13.5207   0.0307     3.022     2.745 -82.17  3.50     13.57196   0  1.000
        23   5174.1714    198.8191  13.9427   0.0373  13.9281   0.0370  13.9108   0.0367     3.095     2.954  88.57  3.50     13.74215   0  1.000
        24   7523.7573    163.8141  19.8179   0.5582  19.9987   0.6065  19.7677   0.5498     1.721     1.558 -73.66  3.90     13.75502   0  0.882
        25    323.6724    172.5657  18.8193   0.3526  19.5234   0.4873  18.6119   0.3211     2.546     2.168 -10.50  6.17      13.7654   0  0.061
        26    248.8813    178.1486  19.1296   0.4070  20.5830   0.7939  18.7760   0.3465     2.396     1.775 -10.76  7.45      13.7538   0  0.001
        27   2456.0320    189.7286  18.9163   0.3686  19.2669   0.4330  18.8945   0.3660     2.425     2.042  79.48  4.92     13.95334   0  0.251
        28   6052.6060    194.9460  19.2723   0.4341  19.3758   0.4552  19.1203   0.4065     1.880     1.796 -72.16  3.69     13.71079   3  0.957
        29   2834.6365    194.9030  20.9722   0.9505  21.5591   1.2443  20.7491   0.8744     1.222     0.980 -76.17  5.36     13.83916   0  0.636
        30   6044.0088    196.1618  19.3565   0.4513  19.4731   0.4761  19.2016   0.4222     1.879     1.791 -74.10  3.88     13.71189   3  0.951
        31   2370.6992    204.7113  20.2581   0.6843  21.3260   1.1177  20.4405   0.7548     1.470     1.187 -85.27  6.87     14.00465   0  0.184
        32   5567.1079    215.5122  20.0013   0.6074  20.1462   0.6491  19.8544   0.5726     1.715     1.516  86.97  3.82     13.71309   0  0.854
        33   8215.8467    263.8517  16.9998   0.1525  17.4485   0.1874  17.0409   0.1554     8.049     6.031 -16.34  4.82     13.75705   0  0.000
        34   3107.1201    224.9698  19.2436   0.4286  19.6154   0.5084  19.2276   0.4273     3.109     1.818 -41.54  4.61     13.77291   0  0.001
        35   1031.9075    236.1201  20.7709   0.8661  21.2202   1.0645  20.5080   0.7794     1.286     1.181 -50.87  4.63     13.93678   0  0.688
        36   2469.0198    272.1964  14.2661   0.0433  14.2539   0.0430  14.2377   0.0427     2.574     2.413 -82.88  3.50      13.9338   0  1.000
        37   3103.4883    264.7363  16.6515   0.1298  16.6579   0.1302  16.6169   0.1278     2.323     2.183 -85.96  3.50     13.78176   0  0.989
        38   8495.1885    310.8998  19.3346   0.4471  21.4503   1.1837  99.0000  99.0000     4.065     0.345  86.49  9.96      10.5822   3  0.075
        39   4540.8467    280.1078  17.7303   0.2134  17.7559   0.2159  17.6839   0.2091     2.232     2.038 -81.77  3.50     13.71311   0  0.982
        40   5085.0415    274.0075  20.7535   0.8591  21.2296   1.0691  20.7607   0.8793     1.219     1.189  89.70  4.61     13.72814   0  0.674
        41   7889.7832    301.0412  17.1936   0.1666  17.2100   0.1679  17.1467   0.1632     2.277     2.092 -76.10  3.50     13.80302   0  0.983
        42   7044.9497    329.9398  14.4582   0.0473  14.4463   0.0470  14.4286   0.0466     2.546     2.355 -78.32  3.50     13.74116   0  0.999
        43   7235.0435    330.2681  16.7832   0.1379  16.7914   0.1384  16.7547   0.1362     2.304     2.120 -77.80  3.50     13.73492   0  0.983
        44   7309.9727    322.5992  20.5956   0.7988  20.9576   0.9432  20.2854   0.7013     1.439     1.226 -88.68  4.42     13.73639   0  0.655
        45   5370.8257    326.2310  19.8937   0.5780  20.0470   0.6201  19.9477   0.5982     1.726     1.557 -85.59  3.51     13.72161   0  0.907
        46   6639.1816    333.2719  20.4227   0.7380  21.1345   1.0234  19.8275   0.5654     1.533     1.206  53.68  5.66     13.69815   0  0.623
        47   1680.0039    334.6448  20.8349   0.8923  21.5927   1.2638  20.5649   0.8008     1.122     1.096 -16.33  5.91     14.34439   0  0.583
        48    573.4091    338.2312  20.2831   0.6917  20.5898   0.7963  20.0802   0.6366     1.580     1.427  76.76  4.42     13.76863   0  0.646
        49   3421.9944    372.1010  18.3492   0.2840  19.1057   0.4021  18.3366   0.2827     4.676     2.743  31.71  5.78     13.79052   0  0.000
        50    464.5525    371.6541  18.4032   0.2910  18.7271   0.3377  18.3831   0.2888     3.614     3.177   7.76  4.54     13.73966   0  0.000
        51   2181.0181    367.0365  19.2989   0.4397  19.7651   0.5446  19.2392   0.4296     2.113     1.954  30.11  5.31     13.98745   0  0.144
        52   5936.9570    371.1371  20.1241   0.6432  20.6889   0.8335  20.0617   0.6311     1.569     1.396 -70.03  5.85     13.71511   0  0.747
        53   3155.9500    395.9146  15.8507   0.0898  15.8488   0.0897  15.8185   0.0885     2.406     2.247 -83.71  3.50     13.79373   0  0.985
        54   7751.3188    390.4228  17.3940   0.1827  17.4132   0.1844  17.3465   0.1789     2.203     2.049 -85.28  3.50      13.7961   0  0.982
        55    818.3607    388.7997  19.4712   0.4757  19.5822   0.5006  19.4038   0.4638     1.875     1.706 -83.13  3.50     13.79836   0  0.948
        56   4849.1890    397.5907  17.7238   0.2127  17.7495   0.2152  17.6933   0.2100     2.195     2.031 -84.37  3.50     13.70008   0  0.982
        57   5634.3159    406.6136  20.4759   0.7561  20.8438   0.8951  20.5246   0.7856     1.450     1.334  66.33  4.67     13.71336   0  0.636
        58   6921.2646    407.5269  19.7548   0.5425  20.3485   0.7125  19.5985   0.5080     1.861     1.602  80.48  5.67     13.72487   0  0.744
        59   6452.5913    409.5808  19.5715   0.4987  21.0413   0.9804  19.2060   0.4230     1.613     1.436  69.99  7.76      13.6904   0  0.006
        60   4678.6934    419.2339  19.6540   0.5180  21.4996   1.2108  18.9590   0.3772     1.486     1.138 -19.44  8.39     13.72402   0  0.329
        61   7106.5234    431.5450  19.7786   0.5481  19.8890   0.5766  19.7428   0.5434     1.768     1.610 -81.94  3.55     13.74372   0  0.918
        62   2428.7717    434.6578  20.4687   0.7535  20.8119   0.8820  20.3069   0.7085     1.436     1.357 -68.87  4.26     13.90032   0  0.668
        63   3027.1125    446.9838  19.1930   0.4185  19.2727   0.4341  19.1233   0.4071     1.903     1.791  87.29  3.50      13.8214   0  0.963
        64   8072.3965    455.1504  17.4541   0.1879  17.4693   0.1892  17.4074   0.1840     2.206     2.039 -82.76  3.50     13.78944   0  0.984
        65   4515.9077    470.4017  19.0412   0.3904  19.4082   0.4621  18.9287   0.3719     3.133     1.897 -45.29  4.75      13.7285   0  0.006
        66   3087.7754    467.4165  20.5869   0.7961  22.1672   1.6466  22.3311   1.9282     1.075     0.832 -57.70  7.87     13.81791   0  0.609
        67   1813.2477    469.1478  19.0134   0.3853  19.0771   0.3967  18.9816   0.3811     2.020     1.826 -88.18  3.50     14.07391   0  0.968
        68   7133.1069    472.1927  18.6439   0.3250  18.7002   0.3335  18.6398   0.3253     2.049     1.855 -81.32  3.50     13.74435   0  0.974
        69   2811.0095    486.0101  20.1598   0.6535  20.3798   0.7229  20.0691   0.6333     1.556     1.500 -85.07  4.06     13.84955   0  0.802
        70   3392.5537    488.0013  20.9385   0.9358  21.6059   1.2715  20.9549   0.9654     1.163     0.974  88.60  5.65     13.79943   0  0.556
        71   8030.7402    511.5327  18.3812   0.2883  19.7799   0.5485  18.3165   0.2801     3.654     2.320  22.96  7.46     13.79944   0  0.000
        72   1016.6891    508.2714  20.5772   0.7923  21.0893   1.0023  20.6526   0.8350     1.428     1.291 -82.51  5.03     13.80963   0  0.234
        73    784.1635    514.1400  20.3948   0.7286  21.5122   1.2178  20.0922   0.6402     1.259     1.087 -44.39  6.92     13.74242   0  0.641
        74   4929.0127    518.4741  21.0938   1.0052  21.9410   1.4836  21.0097   0.9913     1.068     0.800  89.94  6.18     13.71135   0  0.505
        75   5601.9507    522.8384  19.9604   0.5961  20.1450   0.6487  19.8481   0.5709     1.644     1.556 -63.51  3.85     13.70201   0  0.885
        76   5670.3281    528.2552  19.7048   0.5301  20.0709   0.6270  19.6091   0.5105     1.953     1.789 -43.26  4.73     13.71808   0  0.184
        77   2819.8557    539.3690  19.7781   0.5483  20.2099   0.6685  19.7790   0.5527     1.937     1.708 -69.75  4.99     13.85917   0  0.100
        78   2199.0593    548.3950  18.3436   0.2832  18.7446   0.3404  18.2676   0.2738     4.324     2.539  10.62  5.07     13.91216   0  0.000
        79   6091.4014    544.2258  19.2543   0.4305  19.3605   0.4520  19.2664   0.4351     1.917     1.715 -84.72  3.60     13.69227   0  0.959
        80    369.8106    545.0338  20.2533   0.6827  21.3802   1.1460  19.8793   0.5793     1.307     1.281 -81.92  6.78     13.69561   0  0.461
        81   3915.2410    566.6145  20.4341   0.7420  21.3408   1.1254  19.9876   0.6095     1.439     1.156 -80.44  6.37     13.77136   0  0.043
        82   7956.4053    569.1462  20.8765   0.9094  21.5406   1.2338  20.0707   0.6338     1.212     0.987 -74.08  5.34     13.79322   0  0.638
        83   2765.6128    717.7843  13.9190   0.0369  13.8898   0.0364  13.8856   0.0363     7.030     4.785 -87.35  3.50     13.93923   0  0.266
        84   4735.6982    583.1548  20.0350   0.6170  20.2756   0.6890  19.9237   0.5915     1.623     1.435 -71.65  4.33     13.71619   0  0.804
        85   5880.8945    586.8817  20.2538   0.6826  20.7736   0.8666  19.8892   0.5820     1.592     1.306 -83.69  5.28     13.71466   0  0.660
        86    402.5251    593.5117  20.7864   0.8724  21.3084   1.1087  20.5546   0.7969     1.388     0.999  89.31  5.27     13.71644   0  0.604
        87   2023.0288    594.6222  20.5120   0.7687  20.9221   0.9280  20.7989   0.8955     1.444     1.217 -88.45  4.57     13.92332   0  0.636
        88   7966.1006    597.9162  18.8335   0.3546  18.8876   0.3635  18.7348   0.3399     1.971     1.816 -77.96  3.50     13.79115   0  0.970
        89   6663.9917    625.5154  16.3126   0.1111  16.3147   0.1112  16.2813   0.1095     2.324     2.171 -86.35  3.50     13.70504   0  0.984
        90   5722.0757    615.5845  18.9233   0.3696  18.9878   0.3807  18.7932   0.3492     1.970     1.829  87.03  3.50     13.73482   0  0.968
        91   6783.2939    616.0839  20.9410   0.9370  21.8948   1.4525  21.2929   1.1378     1.050     0.928  63.95  6.28     13.70566   0  0.518
        92   1590.5376    618.4407  18.8010   0.3494  18.8626   0.3594  18.8134   0.3525     2.038     1.867 -79.67  3.50     13.93761   0  0.973
        93   4014.2046    619.6508  19.0530   0.3924  19.1279   0.4061  19.0874   0.4003     1.958     1.829 -88.88  3.50     13.76814   0  0.967
        94   2254.0374    626.0766  20.2861   0.6931  21.2600   1.0843  20.1260   0.6505     1.625     1.187  39.14  6.29     13.88379   0  0.008
        95   8273.5410    641.7772  18.4076   0.2916  18.8124   0.3512  18.3734   0.2875     4.054     2.503  40.43  4.92     13.74282   0  0.006
        96   5573.1030    642.4249  16.9200   0.1469  16.9305   0.1476  16.8908   0.1450     2.257     2.104 -88.74  3.50     13.71398   0  0.983
        97   6533.9707    633.0907  20.4747   0.7555  20.8739   0.9076  20.0970   0.6417     1.363     1.282 -88.92  4.21     13.68762   0  0.598
        98   1966.1954    656.5659  18.2865   0.2760  19.1058   0.4021  18.2918   0.2769     3.687     3.594 -80.82  6.01      13.9128   0  0.000
        99   5060.7646    643.3160  21.0420   0.9817  21.9446   1.4861  21.0667   1.0190     1.003     0.881 -73.79  6.49     13.71593   0  0.486
       100   2326.2356    657.4464  16.8916   0.1450  16.9031   0.1458  16.8406   0.1417     2.345     2.154 -79.63  3.50     13.87548   0  0.983
       101   1892.4136    652.3142  19.4527   0.4721  20.1766   0.6583  19.4006   0.4632     2.049     1.888  -6.89  6.01     13.92918   0  0.041
       102   2074.9351    659.8598  20.6156   0.8067  22.0146   1.5349  20.4187   0.7470     1.342     0.776 -82.27  7.56     13.87851   0  0.318
       103    747.5165    661.4859  21.1999   1.0557  22.0923   1.5908  20.5607   0.7992     0.934     0.931 -80.20  5.99     13.72587   0  0.440
       104   7201.3716    679.7552  16.4110   0.1162  16.4146   0.1164  16.3803   0.1146     2.302     2.146 -84.86  3.50     13.75435   0  0.985
       105   2014.2369    668.2086  20.3358   0.7087  20.6055   0.8021  20.2823   0.7003     1.617     1.341  86.76  4.01     13.88955   0  0.760
       106   7647.6357    710.3323  13.9274   0.0370  13.9126   0.0368  13.8977   0.0365     2.714     2.528 -77.35  3.50     13.82278   0  1.000
       107   8341.8477    681.8605  19.5071   0.4842  20.3998   0.7296  19.3706   0.4567     2.221     1.827 -77.27  6.22     13.73817   0  0.002
       108   8458.8125    684.0223  20.6805   0.8304  20.7582   0.8604  99.0000  99.0000     1.238     1.206 -74.67  3.50     13.70158   0  0.627
       109   4563.4771    689.0176  20.3204   0.7041  21.7038   1.3302  20.2481   0.6891     1.358     0.979 -67.21  7.35     13.73767   0  0.063
       110   4421.9761    695.7137  19.6275   0.5113  19.7522   0.5414  19.6065   0.5098     1.778     1.621 -85.10  3.52     13.74855   0  0.941
       111   3436.1606    695.7469  20.5392   0.7785  20.9339   0.9330  20.3724   0.7308     1.409     1.245  85.22  4.81     13.81611   0  0.579
       112   1931.7750    717.9842  17.4700   0.1892  17.4891   0.1909  17.4321   0.1861     2.256     2.073 -87.92  3.50     13.88171   0  0.983
       113   3292.2729    723.0060  20.3185   0.7036  21.3563   1.1335  19.9773   0.6066     1.377     1.274  -4.77  6.59     13.83104   0  0.021
       114   8294.4756    724.6497  20.5546   0.7844  21.9001   1.4560  20.6610   0.8384     1.256     0.883 -58.17  7.47     13.74331   0  0.508
       115   6537.2183    728.3746  19.4187   0.4647  19.9087   0.5819  19.3641   0.4553     2.391     1.967 -75.35  4.97     13.68954   0  0.002
       116   5047.9248    728.0586  20.3217   0.7043  21.0168   0.9694  20.1306   0.6519     1.619     1.217  17.14  5.26     13.72989   0  0.595
       117    605.9999    730.4681  19.6839   0.5248  19.8418   0.5642  19.5718   0.5017     1.833     1.637  80.53  4.01     13.71068   0  0.933
       118   5157.7856    737.1966  19.7607   0.5441  20.5704   0.7893  19.8022   0.5587     2.018     1.709  88.14  5.79     13.73054   0  0.001
       119   3300.5662    742.4910  20.2684   0.6870  20.5229   0.7721  19.5312   0.4922     1.459     1.426  89.18  4.24      13.8357   0  0.795
       120    462.7446    747.9807  19.2845   0.4371  20.9605   0.9447  19.1586   0.4138     2.838     1.166   5.07  7.92     13.69337   0  0.001
       121   5589.7534    777.1336  17.1973   0.1669  17.2128   0.1681  17.1724   0.1651     2.215     2.065 -82.18  3.50     13.72287   0  0.983
       122   7295.6299    780.1697  17.4956   0.1915  17.5144   0.1931  17.4601   0.1886     2.187     2.041 -84.34  3.50     13.77743   0  0.982
       123   7968.2700    800.0845  14.9734   0.0599  14.9647   0.0597  14.9405   0.0590     2.488     2.287 -77.06  3.50     13.80968   0  0.993
       124   5784.5356    780.2793  19.8635   0.5705  20.5097   0.7675  19.7912   0.5559     1.918     1.744  43.57  5.40     13.73452   0  0.001
       125   2255.3477    789.6639  18.6587   0.3274  19.0934   0.3997  18.4026   0.2915     2.704     2.421   3.73  5.26      13.8476   0  0.136
       126   8215.4678    793.2092  18.2947   0.2767  18.3336   0.2817  18.2878   0.2764     2.150     1.901 -68.92  3.50     13.74056   0  0.978
       127   5433.8970    798.2613  20.6945   0.8363  21.2157   1.0624  20.4354   0.7530     1.334     1.195 -68.56  4.95     13.72056   0  0.550
       128   3174.0701    802.3437  19.8670   0.5709  20.0075   0.6089  19.8640   0.5751     1.771     1.563 -73.13  3.71      13.8321   0  0.935
       129   3658.6111    820.4385  19.8898   0.5773  20.4714   0.7541  19.8073   0.5601     2.152     1.482  39.88  5.20     13.85426   0  0.002
       130   3999.1753    861.7146  14.2097   0.0422  14.1963   0.0419  14.1799   0.0416     2.553     2.394 -82.94  3.50     13.80415   0  0.999
       131   6110.0151    854.1666  20.6439   0.8169  21.1081   1.0110  20.1789   0.6670     1.263     1.253 -16.09  4.86     13.70916   0  0.694
       132   8231.2188    879.2937  18.9692   0.3775  19.0500   0.3918  18.9207   0.3705     1.945     1.793 -71.94  3.65     13.73948   0  0.963
       133   6244.2397    885.0416  18.7685   0.3442  18.8190   0.3522  18.7321   0.3395     1.985     1.833 -85.29  3.50     13.71696   0  0.972
       134   8430.2637    896.6844  16.3372   0.1123  16.3410   0.1125  16.5202   0.1222     2.280     2.089 -74.89  3.50     13.70304   0  0.984
       135   1598.4727    899.7637  20.1532   0.6515  20.4464   0.7454  19.9972   0.6123     1.559     1.409  88.69  4.52     13.82146   0  0.759
       136   2931.1309    901.7241  19.0043   0.3837  19.0754   0.3964  18.9261   0.3715     1.974     1.828 -84.79  3.50     13.84141   0  0.966
       137   6775.2148    902.6479  20.4000   0.7300  20.6859   0.8323  19.9092   0.5875     1.430     1.339  66.24  4.36     13.71014   0  0.672
       138   8345.1953    905.6770  20.5754   0.7916  20.9951   0.9597  20.2298   0.6832     1.400     1.158 -71.30  5.13     13.71676   0  0.550
       139   2103.5654    926.7701  16.4886   0.1204  16.4962   0.1208  16.4532   0.1185     2.381     2.196 -79.39  3.50     13.83496   0  0.992
       140   5663.4600    923.2657  19.3451   0.4492  19.8263   0.5602  19.0625   0.3957     2.219     1.755  78.05  5.49     13.72964   0  0.369
       141   6811.9951    927.6198  20.6273   0.8107  21.0262   0.9735  20.5974   0.8133     1.390     1.221 -76.48  4.74     13.71231   0  0.612
       142   7951.2505    961.6499  19.4389   0.4691  20.4141   0.7344  19.2308   0.4279     1.913     1.605 -64.59  6.92     13.82766   0  0.083
       143   7679.5366    965.0415  18.9523   0.3746  19.0249   0.3873  18.9366   0.3733     1.958     1.787 -86.67  3.50     13.78466   0  0.967
       144    378.9084    971.3217  20.4324   0.7414  21.5007   1.2114  20.3910   0.7373     1.314     1.117 -19.56  6.85     13.70278   0  0.364
       145   6971.3442    973.6055  20.4800   0.7577  21.1161   1.0147  20.0724   0.6343     1.423     1.274 -49.07  5.55     13.73828   0  0.663
       146   2767.4729    976.8489  20.0281   0.6154  21.7674   1.3698  19.9659   0.6033     1.473     0.967  71.84  8.01     13.84151   0  0.090
       147   1240.7429    985.1302  18.3342   0.2818  18.3776   0.2874  18.2730   0.2745     2.163     1.967 -82.82  3.50      13.7712   0  0.979
       148   4373.4971    986.7048  19.4397   0.4689  19.5283   0.4883  19.2667   0.4351     1.834     1.675 -88.29  3.59     13.76637   0  0.952
       149   3151.0391    994.1447  20.4464   0.7463  21.7202   1.3403  20.2317   0.6838     1.307     1.028 -52.33  7.10     13.84244   0  0.425
       150   3302.2874   1010.8135  16.8157   0.1400  16.8258   0.1407  16.7758   0.1375     2.300     2.128 -80.97  3.50     13.85599   0  0.984
       151   3636.5107   1131.1294  14.2634   0.0432  14.3128   0.0442  14.3482   0.0449    10.325     9.697 -73.28  3.85     14.12916   0  0.032
       152   5266.1772   1041.9573  14.7308   0.0536  14.7208   0.0534  14.7000   0.0528     2.445     2.309 -83.71  3.50     13.74854   0  0.997
       153     88.1565   1030.6288  18.5435   0.3103  18.5930   0.3174  18.4407   0.2966     2.075     1.877  89.14  3.50     13.70834   0  0.976
       154   1039.3009   1032.7798  19.8343   0.5625  20.0712   0.6271  19.8231   0.5642     1.835     1.566 -75.65  4.03     13.74074   0  0.886
       155   4699.3862   1037.4308  18.0442   0.2465  18.0766   0.2502  17.9998   0.2419     2.114     1.958 -88.61  3.50     13.74171   0  0.981
       156   1279.4225   1043.5082  20.3035   0.6982  20.5993   0.7997  20.1145   0.6470     1.478     1.418 -79.29  4.27     13.75999   0  0.695
       157   4849.8716   1048.4573  19.4927   0.4805  19.6370   0.5134  19.5186   0.4894     1.794     1.683 -85.65  3.65     13.73634   0  0.947
       158   6579.0913   1059.4290  20.6608   0.8233  21.0580   0.9879  20.4878   0.7720     1.433     1.182  81.08  4.79     13.72948   0  0.698
       159   7410.6523   1059.7775  19.2765   0.4349  19.3699   0.4540  19.2144   0.4247     1.876     1.714 -88.23  3.70     13.79188   0  0.958
       160   7900.3657   1089.6532  19.7881   0.5511  20.9021   0.9195  19.7128   0.5358     1.805     1.391 -58.72  7.00     13.82878   0  0.001
       161   1418.0195   1102.5809  20.4918   0.7618  21.0070   0.9650  20.4315   0.7516     1.433     1.233 -89.88  5.30     13.75459   0  0.700
       162   2236.6807   1108.7147  19.0374   0.3896  19.1099   0.4027  18.9296   0.3721     1.958     1.774 -87.13  3.50     13.80781   0  0.964
       163   8382.5342   1134.5310  14.9650   0.0597  14.9562   0.0595  14.9310   0.0588     2.476     2.270 -78.86  3.50     13.74403   0  0.995
       164   1043.1843   1124.5934  17.7786   0.2181  17.8092   0.2212  17.7639   0.2169     2.220     2.045  89.15  3.50     13.73534   0  0.982
       165   5079.6489   1123.3909  21.0272   0.9750  21.8852   1.4460  21.0667   1.0190     1.035     0.896 -46.74  6.33     13.76612   0  0.567
       166   2285.4668   1132.4154  19.3670   0.4535  19.4720   0.4758  19.2129   0.4244     1.856     1.733 -75.21  3.54     13.80845   0  0.963
       167   2209.9331   1144.2793  16.5115   0.1217  16.5168   0.1220  16.4706   0.1195     2.348     2.190 -81.88  3.50      13.8049   0  0.983
       168   2081.2271   1167.5490  17.5067   0.1926  18.0972   0.2527  17.4222   0.1853     3.817     3.722  42.19  5.97     13.78813   0  0.017
       169   8491.1367   2077.2161  14.2248   0.0425  13.7783   0.0346  14.7637   0.0544    48.592    22.435 -83.99  3.50    0.7530024  50  0.000
       170   8518.0293   1712.6833  14.9670   0.0599  13.3732   0.0287  17.0769   0.1580   465.148     7.432  88.93  3.50     5.790163  51  0.000
       171   2316.3804   1170.6578  19.1083   0.4027  19.6582   0.5185  18.9060   0.3680     2.219     1.965  77.77  5.67     13.80695   0  0.148
       172   7581.7803   1177.1591  21.0145   0.9692  21.7975   1.3888  20.8056   0.8984     1.114     0.850 -79.36  5.92     13.78999   0  0.500
       173   1172.3853   1181.8942  20.9011   0.9199  21.5438   1.2356  20.2013   0.6740     1.224     0.976  75.72  5.48     13.73545   0  0.577
       174   1073.3354   1197.1287  16.5104   0.1216  16.5168   0.1220  16.4780   0.1199     2.392     2.190 -81.68  3.50     13.73511   0  0.984
       175   8070.5972   1189.1263  20.1611   0.6544  21.6097   1.2738  19.8823   0.5801     1.491     1.011 -62.69  7.66     13.78391   0  0.462
       176   4149.4531   1206.9946  20.9854   0.9562  21.6432   1.2935  20.1055   0.6443     1.156     0.972 -89.86  5.44     13.80216   0  0.538
       177    760.4031   1208.9326  20.4432   0.7448  20.8516   0.8983  20.2694   0.6961     1.509     1.293 -83.97  4.74     13.71033   0  0.586
       178   7530.4282   1238.6667  14.6265   0.0511  14.6149   0.0508  14.5938   0.0503     2.508     2.316 -78.45  3.50     13.79063   0  0.998
       179   1718.1879   1221.5393  20.3254   0.7055  20.7967   0.8759  20.3955   0.7389     1.491     1.314 -83.09  5.22     13.77351   0  0.717
       180   3367.8909   1228.5732  20.4655   0.7525  20.8257   0.8876  20.8786   0.9305     1.398     1.289 -83.62  4.86     13.86272   0  0.648
       181   7490.9126   1256.3511  16.2896   0.1099  16.2915   0.1100  16.2409   0.1075     2.334     2.158 -77.76  3.50        13.79   0  0.984
       182   6303.0581   1244.6266  19.9359   0.5894  20.0866   0.6315  19.8823   0.5801     1.655     1.554 -81.81  3.81     13.75161   0  0.843
       183    802.3952   1252.9907  20.3011   0.6974  20.6182   0.8068  20.1537   0.6591     1.649     1.349 -76.91  4.08     13.70126   0  0.672
       184   6124.6636   1261.5640  19.6038   0.5058  19.7679   0.5453  19.4432   0.4724     1.758     1.637 -86.48  4.18      13.7501   0  0.927
       185   2293.3123   1270.4886  20.8607   0.9027  21.1952   1.0524  20.7005   0.8543     1.319     1.142  89.01  4.46     13.78881   0  0.523
       186   3240.5952   1280.2574  18.4836   0.3018  18.5264   0.3078  18.3715   0.2873     2.030     1.911  86.87  3.50     13.85274   0  0.977
       187   5348.3823   1295.8840  19.8350   0.5630  21.8297   1.4096  19.6311   0.5157     1.267     0.992  74.84  8.80     13.74647   0  0.149
       188   4463.3740   1313.2296  16.6194   0.1279  16.6256   0.1283  16.5866   0.1260     2.295     2.134 -82.73  3.50     13.80558   0  0.984
       189   2997.6729   1317.6216  17.8744   0.2280  17.9012   0.2308  17.8389   0.2246     2.191     1.989 -80.30  3.50     13.82269   0  0.981
       190   7312.0317   1315.7257  19.9437   0.5920  21.1795   1.0448  19.7212   0.5379     1.616     1.251 -75.23  7.20      13.7911   2  0.633
       191   7307.1431   1321.6674  20.0557   0.6234  21.2064   1.0579  19.7962   0.5571     1.736     1.208 -48.33  6.90     13.79105   3  0.016
       192    592.7524   1384.0719  13.8657   0.0360  13.8509   0.0357  13.8339   0.0355     3.202     2.993 -88.09  3.50     13.73267   0  1.000
       193    605.0421   1330.3593  20.5868   0.7957  21.0210   0.9712  20.0840   0.6378     1.386     1.223  81.93  4.92     13.72305   0  0.680
       194   4199.6382   1342.1576  20.1585   0.6534  20.7168   0.8443  20.3050   0.7079     1.611     1.431  89.35  5.29     13.80438   0  0.670
       195   2231.8577   1342.1652  20.0351   0.6170  20.3038   0.6980  19.9561   0.6005     1.628     1.503 -56.30  4.43     13.75878   0  0.853
       196   7925.3760   1358.8488  16.7871   0.1382  16.7944   0.1386  16.7359   0.1350     2.288     2.083 -79.60  3.50     13.79798   0  0.984
       197   7406.8125   1357.8883  19.0462   0.3911  19.1066   0.4021  18.9432   0.3744     1.903     1.800 -66.44  3.50     13.78345   0  0.965
       198   1912.3611   1360.8784  19.2861   0.4373  20.0291   0.6151  19.1522   0.4126     2.859     1.980 -51.89  5.77     13.74429   0  0.001
       199   6284.0376   1362.8700  19.6249   0.5107  19.7313   0.5362  19.6000   0.5083     1.775     1.573 -89.88  3.59     13.76685   0  0.928
       200   8236.3154   1382.2872  18.1496   0.2588  18.1834   0.2629  18.0696   0.2499     2.076     1.901 -85.26  3.50     13.77726   0  0.980
       201   7002.4399   1384.0562  19.9271   0.5870  20.1371   0.6464  19.4504   0.4740     1.617     1.473  89.10  4.37     13.78564   0  0.823
       202   3411.0244   1386.0083  19.9118   0.5829  20.1179   0.6407  19.5124   0.4879     1.678     1.629 -68.89  4.06     13.87154   0  0.869
       203   3388.2712   1388.7456  18.8060   0.3502  18.8709   0.3608  18.6747   0.3306     2.011     1.817 -78.14  3.50     13.86779   0  0.972
       204   6202.7876   1420.9541  15.5490   0.0781  15.5444   0.0780  15.5164   0.0770     2.375     2.217 -83.46  3.50     13.77078   0  0.984
       205   6068.8691   1404.4778  19.4342   0.4677  19.5567   0.4948  19.3192   0.4459     1.780     1.676 -88.76  3.56     13.76552   0  0.952
       206   4140.7876   1416.1989  20.1533   0.6520  21.7253   1.3434  19.8168   0.5626     1.446     0.946 -86.44  7.88     13.81714   0  0.182
       207   5863.5127   1418.6509  20.4386   0.7436  21.8081   1.3957  19.8379   0.5681     1.202     1.064  79.61  7.24     13.76131   0  0.101
       208   1736.0470   1423.0266  20.6882   0.8338  21.2478   1.0782  20.2757   0.6981     1.219     1.201 -83.30  5.20     13.74701   0  0.681
       209   5929.2544   1433.2803  17.6450   0.2051  17.6710   0.2076  17.5577   0.1972     2.132     1.982  86.67  3.50     13.76549   0  0.982
       210   8219.4150   1456.4739  15.4017   0.0730  15.3955   0.0728  15.3691   0.0719     2.428     2.228 -76.60  3.50     13.77196   0  0.984
       211   1269.7616   1498.6476  13.8823   0.0363  13.8670   0.0360  13.8511   0.0357     3.086     2.887 -87.66  3.50     13.74674   0  1.000
       212   6572.7500   1458.0725  19.6482   0.5167  20.8701   0.9061  19.6597   0.5227     2.054     1.347  17.11  7.22     13.76634   0  0.002
       213   1787.6387   1467.5461  20.5158   0.7704  21.8023   1.3919  20.2073   0.6759     1.214     0.990  65.86  7.17     13.74733   0  0.603
       214   4447.7964   1485.9832  16.4320   0.1173  16.4359   0.1175  16.3976   0.1155     2.289     2.144 -84.13  3.50     13.80402   0  0.984
       215   1467.3513   1480.9375  20.0840   0.6310  20.3051   0.6984  19.9947   0.6115     1.637     1.527  80.76  3.96      13.7244   0  0.856
       216   1432.7802   1489.4202  18.3447   0.2831  18.3863   0.2886  18.2991   0.2778     2.104     1.928  90.00  3.50     13.72676   0  0.979
       217   1761.7362   1503.0994  15.8849   0.0912  15.8841   0.0912  15.8527   0.0899     2.389     2.237 -82.91  3.50      13.7463   0  0.986
       218   1583.9939   1497.3137  19.5128   0.4850  19.6558   0.5179  19.3822   0.4592     1.827     1.645  82.80  3.76     13.72902   0  0.947
       219   2435.9500   1508.5315  20.6451   0.8173  20.9870   0.9561  20.4669   0.7643     1.416     1.228 -88.38  4.33     13.77154   0  0.716
       220   1641.8285   1525.9320  18.4948   0.3034  18.5460   0.3106  18.5019   0.3052     2.088     1.901 -87.11  3.50     13.73126   0  0.975
       221   1832.6469   1528.2030  20.5765   0.7922  21.4491   1.1829  20.5422   0.7922     1.442     1.013  64.23  6.03     13.74496   0  0.512
       222   6992.9233   1536.4119  20.0192   0.6130  21.3284   1.1190  19.8669   0.5759     1.435     1.263 -77.92  7.67     13.77352   0  0.059
       223   2856.5295   1552.5018  16.8769   0.1440  16.8853   0.1446  16.8272   0.1408     2.299     2.133 -76.92  3.50     13.81784   0  0.984
       224   5094.1758   1578.3485  14.5455   0.0492  14.5332   0.0489  14.5149   0.0485     2.482     2.336 -81.53  3.50     13.77497   0  0.998
       225   3100.2617   1650.4862  14.2726   0.0434  14.2612   0.0432  14.2420   0.0428     6.836     5.963 -86.43  3.50     13.99016   0  0.053
       226   7987.9204   1558.3113  18.9474   0.3737  19.0059   0.3839  18.8826   0.3640     1.951     1.802 -77.57  3.50     13.78181   0  0.965
       227   3280.9490   1561.9890  19.3999   0.4609  20.9412   0.9363  19.3375   0.4497     2.638     1.169 -58.11  7.75     13.86537   0  0.001
       228    574.2690   1603.0737  17.6215   0.2031  18.3758   0.2873  17.6778   0.2085     6.136     3.119 -39.21  6.28     13.71852   2  0.000
       229   1823.9741   1584.0530  18.2662   0.2731  18.2963   0.2769  18.2474   0.2713     2.123     1.980 -77.08  3.50     13.74133   0  0.978
       230   7093.7256   1583.1831  19.3666   0.4536  19.9343   0.5888  19.1406   0.4104     2.322     1.705  50.69  5.57     13.77553   0  0.099
       231   6161.3975   1582.6239  19.9521   0.5941  22.2002   1.6719  19.7536   0.5461     1.066     0.912 -43.73  8.99     13.76936   0  0.077
       232   3667.3345   1591.8862  20.7728   0.8669  21.2331   1.0709  20.8086   0.8997     1.270     1.095 -73.52  4.95     13.87808   0  0.571
       233   7111.0298   1601.4827  18.7487   0.3411  18.8149   0.3516  18.4863   0.3030     2.014     1.829 -80.53  3.59     13.77196   0  0.971
       234    562.7037   1620.8972  18.0656   0.2491  18.5476   0.3109  17.8177   0.2224     3.417     2.721 -81.09  5.62      13.7213   3  0.128
       235   3804.1733   1624.6211  15.0574   0.0623  15.0487   0.0621  15.0266   0.0614     2.425     2.292 -83.32  3.50     13.88682   0  0.989
       236   3433.9917   1605.4719  21.0837   1.0005  21.9624   1.4983  20.4979   0.7757     1.075     0.801 -89.93  6.05     13.87617   0  0.489
       237   5508.7231   1620.7742  19.7738   0.5476  21.1114   1.0126  19.6081   0.5102     3.785     0.772  61.04  6.95     13.76117   0  0.001
       238   7747.0645   1634.7325  15.0928   0.0633  15.0833   0.0630  15.0577   0.0623     2.411     2.249 -83.50  3.50      13.7777   0  0.991
       239   6361.9761   1621.2299  18.1559   0.2595  18.1931   0.2640  18.1067   0.2542     2.099     1.936 -77.95  3.50     13.76829   0  0.980
       240   2289.3027   1623.4561  19.6552   0.5185  20.6989   0.8374  19.6893   0.5300     3.093     1.102 -16.30  6.72     13.74624   0  0.001
       241   5363.7974   1628.5616  18.2571   0.2719  18.3017   0.2776  18.1819   0.2632     2.083     1.931 -85.40  3.50     13.75749   0  0.979
       242   7762.1748   1638.6847  20.0475   0.6209  20.9006   0.9188  19.0727   0.3976     1.464     1.295  70.86  6.61     13.77688   0  0.701
       243   7958.0107   1640.1123  20.3309   0.7075  21.2429   1.0757  20.0217   0.6193     1.315     1.195 -89.01  6.44     13.78625   0  0.448
       244   1343.7134   1643.0685  20.2758   0.6898  21.1063   1.0102  20.1262   0.6506     1.780     1.086 -75.35  6.10     13.71976   0  0.361
       245   8018.7686   1645.7079  21.0055   0.9651  21.6699   1.3095  21.1883   1.0811     1.137     0.953  81.42  5.39     13.78189   0  0.519
       246   5592.0923   1691.2814  17.3914   0.1827  17.9792   0.2393  17.4085   0.1841     7.095     3.466  34.75  5.48     13.76167   0  0.000
       247   2673.1270   1659.3987  19.6688   0.5217  20.9590   0.9440  19.5190   0.4894     1.810     1.589  -3.08  7.16     13.77191   0  0.001
       248   6164.9609   1664.4574  18.6120   0.3202  18.6558   0.3267  18.5773   0.3160     2.023     1.831 -86.47  3.50     13.76947   0  0.972
       249   6857.1616   1683.8066  20.1070   0.6383  21.2793   1.0940  20.2582   0.6924     2.148     0.992  48.47  6.69     13.78335   0  0.008
       250   5161.5088   1704.5291  17.1651   0.1644  17.1781   0.1654  17.1135   0.1607     2.188     2.053  88.31  3.50     13.77046   0  0.985
       251   3908.2954   1850.6870  14.2303   0.0426  14.2910   0.0438  14.3462   0.0449    10.960    10.325 -73.92  3.95     14.06044   0  0.029
       252   1666.7548   1717.0812  20.7091   0.8419  21.2326   1.0706  20.3819   0.7341     1.308     1.114 -59.23  5.04     13.70147   0  0.499
       253   5395.4873   1720.3076  19.9353   0.5892  20.1115   0.6388  19.8869   0.5814     1.627     1.530  82.99  3.95     13.75981   0  0.883
       254   4897.3906   1724.3802  19.7265   0.5356  20.6393   0.8147  19.4807   0.4808     1.733     1.554  32.35  6.58     13.77865   0  0.087
       255   7907.6885   1739.1387  20.4709   0.7545  21.1717   1.0410  20.5866   0.8091     1.440     1.173 -21.97  5.66     13.77547   0  0.639
       256   4861.6348   1767.1827  16.4298   0.1172  16.4336   0.1174  16.4002   0.1157     2.297     2.142 -83.85  3.50     13.77924   0  0.984
       257   4436.1621   1754.7231  20.1387   0.6471  20.3076   0.6992  20.0699   0.6336     1.605     1.500 -80.90  3.74     13.81254   0  0.845
       258   4087.1440   1779.1577  19.1071   0.4023  19.1736   0.4147  19.0159   0.3873     1.863     1.794 -85.70  3.50     13.87317   0  0.960
       259   4760.5220   1798.0382  17.2978   0.1748  17.3140   0.1761  17.2697   0.1727     2.186     2.045 -83.13  3.50     13.78148   0  0.984
       260   5238.9751   1835.5359  14.1754   0.0415  14.1621   0.0412  14.1443   0.0409     2.861     2.721 -81.06  3.50     13.80076   0  1.000
       261   2489.7842   1811.2773  19.3829   0.4573  20.7215   0.8462  19.3621   0.4549     3.813     0.934 -65.84  7.27     13.74902   0  0.001
       262   3989.7551   1803.9247  19.1969   0.4198  20.0525   0.6218  18.9257   0.3714     3.244     1.915 -21.60  6.00     14.01376   0  0.000
       263   7021.8975   1833.2732  14.4519   0.0471  14.4393   0.0469  14.4225   0.0465     2.508     2.332 -81.37  3.50     13.79013   0  0.988
       264   7717.9702   1816.6400  20.3501   0.7139  21.3674   1.1393  20.1619   0.6616     1.495     1.115  68.42  6.52     13.77259   0  0.122
       265   4343.8301   1824.6838  20.2595   0.6843  20.6152   0.8056  19.7566   0.5469     1.432     1.358  79.74  4.85     13.83385   0  0.809
       266   7930.1992   1831.0461  20.7252   0.8479  21.0796   0.9978  20.6945   0.8519     1.273     1.233 -76.20  4.19     13.77994   0  0.707
       267    913.2301   1848.6259  19.8695   0.5717  20.0846   0.6310  19.6512   0.5206     1.711     1.589 -79.56  4.18     13.69355   0  0.862
       268   4195.7886   2074.6118  14.5163   0.0486  14.1774   0.0415  14.8809   0.0574    22.710    19.214   7.84  3.50     1.295712   0  0.000
       269   4322.7920   2076.1040  14.7263   0.0535  14.3693   0.0454  14.9274   0.0587    20.080    18.982 -41.79  3.50     1.476627   0  0.000
       270   1867.0157   1864.2640  19.0844   0.3981  19.1745   0.4149  18.9988   0.3842     1.931     1.794 -82.70  3.50     13.70233   0  0.964
       271   7327.3896   1863.6268  18.9807   0.3798  19.7300   0.5359  18.6957   0.3338     2.266     2.140  75.11  6.29     13.77988   0  0.076
       272   3211.5605   1864.4183  20.3289   0.7068  20.9763   0.9515  19.9599   0.6016     1.546     1.290  53.81  5.89     13.83398   0  0.674
       273   3114.4551   1869.2966  21.0225   0.9727  21.7523   1.3602  20.7622   0.8799     1.012     0.992  32.65  5.52     13.83502   0  0.473
       274   7048.2686   1874.7562  19.9979   0.6068  20.4622   0.7508  19.9254   0.5919     1.754     1.539  45.03  5.28     13.79768   0  0.468
       275   4415.9082   1877.0663  19.2518   0.4303  19.6837   0.5246  19.1412   0.4105     2.645     1.891   6.98  5.10     13.82152   0  0.030
       276   1472.5508   1877.6997  20.4032   0.7313  20.8942   0.9161  20.5508   0.7954     1.456     1.352 -68.53  5.10     13.71368   0  0.641
       277   1335.1875   1884.5092  19.2682   0.4333  19.3665   0.4533  19.1061   0.4038     1.941     1.773 -86.26  3.53     13.69086   0  0.955
       278   6708.3428   1894.3861  17.9258   0.2335  17.9557   0.2367  17.9209   0.2333     2.135     1.954 -82.23  3.50     13.78504   0  0.982
       279   5843.2280   1908.4208  20.6673   0.8257  21.0994   1.0069  20.8663   0.9251     1.331     1.190  75.92  4.64     13.77785   0  0.553
       280   7862.5913   1908.0897  20.8605   0.9028  21.4158   1.1648  20.5650   0.8008     1.209     0.982  75.19  5.53     13.77102   0  0.679
       281   2803.7637   1913.0985  18.5577   0.3123  18.5992   0.3183  18.4400   0.2965     2.012     1.900 -89.45  3.50     13.78235   0  0.975
       282   7702.3877   1910.6509  20.1773   0.6588  20.3904   0.7264  20.0073   0.6152     1.544     1.392  89.07  4.31     13.75947   0  0.734
       283   2487.9133   1914.5911  20.2666   0.6867  20.8359   0.8919  19.8714   0.5771     1.603     1.280  69.96  5.42     13.74634   0  0.687
       284    146.3387   1931.0149  19.7954   0.5524  19.9332   0.5885  19.8561   0.5730     1.706     1.615  40.72  3.64     13.69713   0  0.939
       285   6988.8071   1944.8508  16.8272   0.1408  16.8353   0.1413  16.7856   0.1381     2.252     2.089  89.88  3.50      13.7799   0  0.983
       286    312.4896   1946.6151  19.2645   0.4328  19.6817   0.5241  19.2019   0.4222     2.673     1.851  78.93  5.04     13.70619   0  0.019
       287   6131.1299   1944.6066  18.4304   0.2946  18.5755   0.3149  18.3821   0.2887     3.093     2.038  -3.93  3.93     13.78837   0  0.579
       288   5427.7485   1959.2030  18.1416   0.2578  18.1773   0.2621  18.0652   0.2493     2.078     1.952 -79.16  3.50     13.77699   0  0.979
       289   8327.6338   1965.1373  17.7284   0.2132  17.7536   0.2156  17.6925   0.2099     2.137     1.950 -82.68  3.50     13.71219   0  0.982
       290   4331.2041   1974.2061  20.9354   0.9339  21.3894   1.1508  99.0000  99.0000     1.238     1.080 -46.69  3.50      13.8187   0  0.635
       291    225.8604   2003.1370  19.0661   0.3952  19.9798   0.6013  19.1157   0.4056     4.871     1.287 -86.16  6.00     13.70687   0  0.004
       292   2943.1140   1986.0287  18.2491   0.2709  18.2876   0.2758  18.2084   0.2664     2.073     1.954 -79.79  3.50     13.80548   0  0.978
       293   7733.7461   1984.7729  19.5157   0.4856  19.6240   0.5103  19.3956   0.4621     1.844     1.631  82.83  3.55     13.75944   0  0.945
       294   3289.0049   1988.3030  20.1468   0.6499  22.1971   1.6696  19.9095   0.5876     1.241     0.780  89.93  8.75     13.82889   0  0.153
       295   4198.4883   2216.5139  14.5343   0.0490  14.1816   0.0416  14.9066   0.0581    23.939    18.090  -1.52  3.50     1.715177   0  0.000
       296   7449.1060   2005.7841  19.9056   0.5817  21.5752   1.2537  19.6846   0.5288     1.399     1.231 -70.74  8.06      13.7677   0  0.010
       297   4604.4370   2010.9934  21.0033   0.9642  21.6375   1.2901  20.5841   0.8081     1.154     0.967 -89.61  5.45     13.78945   0  0.558
       298   2105.2129   2011.5066  18.6205   0.3215  18.6767   0.3299  18.6166   0.3218     2.012     1.864 -89.02  3.50     13.72617   0  0.974
       299    594.8073   2015.0695  20.5979   0.7996  21.0488   0.9837  99.0000  99.0000     1.377     1.244  30.29  4.32     13.70805   0  0.599
       300   4323.6504   2217.1460  15.0024   0.0608  14.5731   0.0499  15.0279   0.0615    19.126    17.528   8.86  3.50     2.268753   0  0.000
       301    404.0750   2126.0552  13.2798   0.0275  12.4491   0.0187  15.9532   0.0941   249.355    14.606  -0.37  3.50     4.085225  18  0.000
       302   5992.2363   2035.7535  19.2494   0.4295  19.3365   0.4470  19.2103   0.4239     1.883     1.722  89.13  3.50     13.78205   0  0.965
       303    901.7872   2112.3027  13.8841   0.0363  13.8493   0.0357  13.9030   0.0366     8.440     4.196  13.10  3.50     9.334781   3  0.994
       304   3832.6045   2051.5811  19.9147   0.5841  21.6190   1.2793  19.9866   0.6092     1.522     1.022   6.67  8.22     13.89173   0  0.079
       305   6858.0791   2054.7529  19.9189   0.5853  20.8282   0.8888  19.8448   0.5700     2.030     1.310  39.37  6.30     13.76405   0  0.002
       306   1143.0889   2059.2119  20.2671   0.6866  20.5020   0.7647  20.0201   0.6189     1.578     1.438 -76.63  3.92     13.71597   0  0.795
       307   3736.7097   2069.7395  20.1437   0.6491  21.8478   1.4215  20.2675   0.6954     1.544     0.889  33.28  8.04     13.86459   0  0.105
       308   7701.6313   2072.9985  20.4795   0.7576  21.5928   1.2639  19.4421   0.4722     1.279     1.029 -89.13  6.69     13.75192   0  0.540
       309   7712.9360   2081.1255  20.1889   0.6628  21.4062   1.1598  20.0330   0.6226     1.325     1.200 -46.29  7.19     13.74909   0  0.101
       310   7251.1313   2091.5278  19.1975   0.4194  19.2741   0.4344  99.0000  99.0000     1.917     1.721  89.80  3.62      13.7455   0  0.962
       311   7513.0864   2094.5801  20.6981   0.8373  20.9890   0.9570  99.0000  99.0000     1.386     1.212 -76.78  3.69     13.72543   0  0.553
       312   5012.1816   2095.5554  19.4957   0.4811  19.6223   0.5099  99.0000  99.0000     1.772     1.640 -73.66  3.50     13.73366   0  0.948
       313   5811.3574   2096.6733  18.3154   0.2793  18.3318   0.2814  99.0000  99.0000     2.006     1.898 -88.78  3.50     13.72181   0  0.977
       314   4801.2817   2099.3323  17.7772   0.2180  17.6445   0.2051  99.0000  99.0000     2.006     1.879  -9.41  3.50     13.71335   0  0.982
       315   8511.9971   2213.3918  99.0000  99.0000  16.4346   0.1175  17.0357   0.1550    14.353     8.809  67.58  0.00     6.999576  16  0.000
       316    510.4665   2229.6858  12.3588   0.0180  12.2299   0.0169  15.4787   0.0756   262.026    12.252  -0.68  3.50     4.534617  24  0.879
       317   1175.9769   2244.8118  14.1472   0.0410  14.1269   0.0406  14.1010   0.0401     5.242     4.917 -67.18  3.50     13.55791   0  0.052
       318   1514.6106   2206.2605  19.9798   0.6018  19.8158   0.5576  99.0000  99.0000     5.342     1.344  -8.57  3.50     13.33535   0  0.000
       319   6202.8027   2226.8066  15.4553   0.0748  15.4490   0.0746  15.4120   0.0734     2.377     2.221 -87.66  3.50     13.73942   0  0.986
       320   4452.8242   2207.9531  19.5463   0.4930  20.8889   0.9140  99.0000  99.0000     2.290     1.291  18.70  7.31     13.64721   0  0.001
       321   7108.7373   2234.3826  20.5755   0.7918  21.3673   1.1392  19.5100   0.4874     1.285     1.165  74.74  5.94     13.66851   0  0.513
       322   3902.3367   2251.7617  17.7743   0.2177  17.8027   0.2206  17.6722   0.2080     2.140     1.992 -85.26  3.50     13.79432   0  0.981
       323    287.1523   2294.9519  14.0859   0.0398  14.0770   0.0397  14.0900   0.0399     2.551     2.362 -85.41  3.50     13.76243   0  0.999
       324   3934.1885   2273.7957  18.2051   0.2655  18.2671   0.2732  17.8886   0.2298     2.091     1.970 -72.62  3.78     13.85214   0  0.978
       325    823.7465   2273.5830  19.4203   0.4653  20.4324   0.7407  99.0000  99.0000     2.625     1.460  61.57  7.14     13.77691   0  0.001
       326   3936.0327   2290.4485  18.1033   0.2534  18.4623   0.2989  17.9198   0.2331     3.023     2.641  48.41  5.15     13.85215   0  0.419
       327   5482.4634   2278.0649  19.3416   0.4482  19.4189   0.4643  19.2910   0.4401     1.846     1.720 -84.48  3.50     13.78468   0  0.957
       328    210.4769   2281.5811  19.9823   0.6020  20.0342   0.6165  99.0000  99.0000     1.672     1.442  88.71  3.50     13.75323   0  0.888
       329   6202.5796   2292.5381  19.6242   0.5105  19.7364   0.5375  19.6930   0.5309     1.736     1.644  81.10  3.53     13.83302   0  0.939
       330   2167.5581   2312.2971  15.7696   0.0865  15.7669   0.0864  15.7379   0.0852     2.369     2.233 -80.55  3.50     13.77223   0  0.987
       331   7624.2573   2295.5903  20.5580   0.7855  22.1857   1.6607  20.1008   0.6428     1.084     0.827 -59.43  7.91     13.76078   0  0.601
       332   7927.9595   2296.4424  20.0459   0.6205  21.2396   1.0742  19.9692   0.6043     1.551     1.272  78.16  7.00     13.75688   0  0.001
       333   7033.7627   2299.4124  20.2725   0.6888  21.1928   1.0512  20.3851   0.7352     1.440     1.346 -26.97  6.27     13.76557   0  0.293
       334   2256.6016   2315.2593  19.7450   0.5400  20.1892   0.6621  19.7277   0.5396     1.963     1.778 -38.31  4.87     13.77283   0  0.061
       335   5817.9106   2318.3640  19.8107   0.5563  19.9414   0.5907  19.7402   0.5427     1.723     1.562 -88.43  3.52     13.79328   0  0.930
       336   1312.0994   2345.4172  15.1525   0.0651  15.1451   0.0649  15.1182   0.0641     2.482     2.321 -78.34  3.50     13.77754   0  0.991
       337   1472.7970   2320.6877  20.3397   0.7104  21.9284   1.4752  20.1819   0.6679     1.263     0.960  -4.96  7.78     13.75254   0  0.089
       338   3897.0825   2343.4148  20.3139   0.7020  21.9570   1.4947  20.2119   0.6774     1.390     0.812  37.64  8.00     13.85252   0  0.407
       339   3347.3611   2359.9993  18.1005   0.2530  18.1391   0.2575  17.9994   0.2419     2.063     1.939 -82.40  3.50     13.82826   0  0.979
       340   2728.3359   2367.0598  18.9514   0.3748  20.3327   0.7074  18.5515   0.3122     2.204     1.718  -1.18  7.75      13.8002   0  0.011
       341   1862.2014   2373.8838  19.5128   0.4853  20.1222   0.6420  19.2048   0.4228     1.938     1.722  -2.82  5.69     13.76388   0  0.552
       342   2700.0562   2376.7646  19.3136   0.4425  19.4315   0.4670  18.7613   0.3441     1.858     1.778 -73.54  3.86     13.79269   0  0.946
       343   3365.1108   2377.0540  19.0022   0.3833  19.0772   0.3967  18.7880   0.3484     1.891     1.792 -86.12  3.50     13.82716   0  0.965
       344    278.1459   2376.9368  19.6651   0.5207  20.9941   0.9593  18.7824   0.3475     2.025     1.187  18.09  7.27     13.74717   0  0.005
       345   1399.7705   2380.0908  18.6166   0.3209  18.6564   0.3268  18.5805   0.3165     2.036     1.908  89.27  3.50     13.75968   0  0.971
       346   4229.7183   2380.2124  20.5084   0.7676  20.5637   0.7868  99.0000  99.0000     2.598     1.494   2.39  3.50     13.82304   0  0.001
       347    224.3914   2391.6304  17.3177   0.1764  17.3361   0.1779  17.2226   0.1690     2.313     2.111 -85.81  3.50     13.74109   0  0.984
       348   1509.9464   2383.3677  19.2801   0.4356  19.3791   0.4559  19.2606   0.4339     1.903     1.789 -70.22  3.50     13.74697   0  0.957
       349   5296.6655   2397.8018  17.8772   0.2283  17.9069   0.2314  17.8131   0.2219     2.089     1.951 -89.71  3.50     13.78876   0  0.982
       350   5737.7056   2403.4836  20.7160   0.8449  22.0326   1.5477  20.7793   0.8872     1.040     0.999  84.10  7.21     13.79991   0  0.166
       351   7933.5981   2411.6648  19.5273   0.4882  19.6465   0.5157  19.4031   0.4637     1.756     1.670  81.51  3.69     13.75433   0  0.944
       352   3662.3838   2413.1494  20.8448   0.8962  21.5075   1.2151  20.6926   0.8511     1.221     0.979 -75.74  5.35     13.81899   0  0.524
       353   2547.2263   2424.0364  19.3395   0.4477  19.4496   0.4710  19.2838   0.4386     1.860     1.722 -85.28  3.69     13.77154   0  0.949
       354   5084.3887   2424.9465  20.3482   0.7126  20.5898   0.7963  20.1790   0.6670     1.485     1.346  77.09  3.92     13.79552   0  0.604
       355    206.8400   2426.2158  20.0294   0.6153  20.1893   0.6621  21.1686   1.0708     1.696     1.544  74.67  3.50       13.728   0  0.902
       356   6609.4438   2428.9983  20.9842   0.9557  21.5910   1.2628  20.9001   0.9402     1.161     0.963 -89.16  5.35     13.77311   0  0.549
       357   1114.1329   2435.5430  20.5117   0.7691  21.4261   1.1705  20.2664   0.6951     1.457     1.160 -59.38  6.23     13.77325   0  0.080
       358   7726.4229   2451.1221  19.2791   0.4355  19.4364   0.4681  19.0950   0.4018     1.840     1.711 -83.27  4.05     13.75986   0  0.956
       359   7717.4819   2451.8293  20.7394   0.8538  21.4168   1.1654  20.1785   0.6668     1.229     1.026  89.84  5.67     13.75976   0  0.495
       360   1115.6097   2457.9004  19.2198   0.4237  19.3146   0.4426  18.9791   0.3807     1.932     1.743 -79.41  3.50     13.76903   0  0.965
       361   2255.3408   2464.5344  18.4237   0.2939  19.3224   0.4442  18.3214   0.2807     3.730     2.307  37.72  6.63     13.75872   0  0.000
       362   3016.8601   2461.0728  19.9932   0.6051  20.1751   0.6578  19.9779   0.6067     1.618     1.524 -74.22  3.90     13.80535   0  0.877
       363   3964.6296   2485.0037  19.9761   0.6004  20.1705   0.6564  19.8316   0.5665     1.607     1.482  89.87  4.05     13.83722   0  0.815
       364    429.1107   2496.4507  19.5886   0.5028  20.8979   0.9178  19.2605   0.4339     2.263     1.259  53.37  7.37     13.71736   0  0.001
       365     91.4485   2500.2649  21.2673   1.0880  21.4950   1.2081  20.6762   0.8444     0.961     0.932  12.53  3.50     13.71764   0  0.816
       366   6462.6450   2504.5625  20.9995   0.9622  21.4909   1.2058  20.3136   0.7108     1.175     0.966  66.62  4.65     13.79048   0  0.493
       367   1720.0298   2518.0879  18.7323   0.3385  18.7928   0.3480  18.7457   0.3416     2.103     1.854 -75.86  3.50     13.73644   0  0.973
       368   2903.0691   2536.6670  18.4827   0.3020  19.2470   0.4291  18.4578   0.2990     3.251     2.887  79.95  6.10     13.79292   0  0.000
       369   5706.3496   2526.6731  20.6135   0.8055  20.9449   0.9378  20.4938   0.7742     1.380     1.258 -47.27  4.45      13.8088   0  0.513
       370   3195.1145   2546.1343  17.5192   0.1937  17.9068   0.2315  17.5868   0.1999    10.699     2.397  14.37  4.66     13.80799   0  0.000
       371   5057.8418   2547.9331  20.0165   0.6117  20.2310   0.6750  19.9230   0.5913     1.595     1.485  60.63  4.14     13.80618   0  0.745
       372   2615.3560   2579.1235  16.2459   0.1077  16.2473   0.1078  16.2134   0.1061     2.315     2.185 -75.50  3.50     13.76663   0  0.984
       373    202.4902   2576.0134  20.1063   0.6381  21.6689   1.3090  19.9490   0.5985     2.120     0.715 -43.84  7.92     13.70711   0  0.029
       374    798.4236   2596.0403  18.8874   0.3639  19.4432   0.4696  18.8183   0.3533     3.281     2.629  63.62  5.14     13.72916   0  0.000
       375   8476.1406   2591.3533  19.9637   0.5972  20.3685   0.7191  19.9064   0.5867     1.928     1.447 -59.88  4.72     13.70948   0  0.802
       376   7729.6392   2604.2512  19.1922   0.4183  19.2611   0.4318  19.1641   0.4149     1.851     1.715  86.23  3.50     13.75891   0  0.963
       377   6132.4634   2606.1470  19.8942   0.5787  21.0472   0.9831  19.7239   0.5386     1.849     1.486  81.96  6.59     13.80095   0  0.001
       378   2242.4114   2622.3064  20.6064   0.8028  20.9789   0.9526  20.2432   0.6875     1.398     1.217 -81.97  4.38     13.75341   0  0.540
       379   5276.0972   2630.1331  20.5761   0.7920  21.2605   1.0845  20.4466   0.7570     1.301     1.186  50.26  5.69     13.80318   0  0.647
       380   3809.7119   2631.8916  20.2750   0.6895  21.0990   1.0068  20.1367   0.6538     1.506     1.287  84.31  6.10     13.80901   0  0.357
       381   6049.9966   2633.1882  19.0602   0.3937  19.1318   0.4068  18.9630   0.3779     1.890     1.789 -79.16  3.50      13.7931   0  0.967
       382   5414.5562   2632.7351  20.2488   0.6808  20.5496   0.7817  20.0546   0.6290     1.540     1.402 -87.63  4.19     13.79427   0  0.701
       383   1162.2074   2658.1758  16.3354   0.1122  16.3389   0.1124  16.3043   0.1107     2.379     2.216 -73.78  3.50     13.75113   0  0.984
       384   1374.6327   2646.6836  18.8391   0.3556  18.9134   0.3679  18.7622   0.3443     2.031     1.879  87.88  3.53     13.73141   0  0.972
       385   1419.7179   2646.9832  20.6057   0.8026  21.0395   0.9795  20.4662   0.7641     1.308     1.255 -10.84  4.76     13.73454   0  0.677
       386   5594.6890   2649.0789  20.0928   0.6335  20.2886   0.6931  20.1112   0.6460     1.582     1.466 -80.34  3.63     13.79938   0  0.727
       387   3677.5776   2687.7258  16.7772   0.1375  16.7855   0.1381  16.7260   0.1344     2.261     2.122 -76.47  3.50     13.81093   0  0.984
       388   2763.3660   2687.5920  18.7397   0.3396  18.7919   0.3479  18.6175   0.3219     2.013     1.848 -69.76  3.50     13.77089   0  0.974
       389   7942.1743   2690.7122  18.7516   0.3417  19.2593   0.4315  18.5778   0.3161     2.366     2.117  50.58  5.71     13.77267   0  0.545
       390    763.5820   2693.0559  19.3989   0.4602  19.4922   0.4803  19.3441   0.4511     1.894     1.734  87.03  3.60     13.73123   0  0.959
       391   8469.7334   2896.9919  13.4386   0.0296  13.4647   0.0299  13.6778   0.0330    18.081    10.844  87.45  3.50     14.02959   0  0.029
       392    139.7426   2709.4045  19.9624   0.5966  20.1230   0.6422  20.0404   0.6248     1.719     1.563 -72.63  3.76     13.71063   0  0.902
       393   2785.2656   2720.5010  20.9724   0.9505  21.6872   1.3199  20.7561   0.8774     1.014     0.978  83.63  5.68     13.77337   0  0.542
       394   6170.1611   2733.3755  19.8319   0.5622  20.6370   0.8138  19.6851   0.5289     1.680     1.443  16.93  6.43     13.82053   0  0.608
       395   5517.7168   2736.4148  19.4360   0.4686  20.4405   0.7435  19.3733   0.4573     2.235     1.842 -40.00  6.62     13.79336   0  0.001
       396   1491.6335   2736.6794  19.5729   0.4991  20.5411   0.7787  19.3580   0.4540     2.173     1.476  80.18  6.78     13.72521   0  0.002
       397   5613.2373   2748.7056  21.1091   1.0124  21.9593   1.4962  21.3580   1.1748     0.998     0.882 -73.40  5.93     13.78862   0  0.544
       398   4967.9673   2772.7661  20.5657   0.7878  20.8662   0.9043  20.6203   0.8222     1.316     1.220  86.56  4.17     13.81115   0  0.539
       399   7950.0308   2779.1248  17.8407   0.2245  17.8656   0.2271  17.8197   0.2226     2.103     1.967 -78.80  3.50     13.76738   0  0.982
       400    445.8843   2775.8108  19.6031   0.5056  19.7342   0.5369  19.5578   0.4984     1.804     1.628  79.42  3.72     13.71655   0  0.950
       401   4620.3018   2784.9167  18.6006   0.3188  19.0079   0.3843  18.4488   0.2977     2.996     2.564 -12.67  5.15     13.87765   0  0.015
       402   8055.4990   2789.6028  18.4444   0.2964  18.4896   0.3027  18.3866   0.2893     2.039     1.887 -72.54  3.50     13.75597   0  0.977
       403   2511.9309   2790.1648  20.4330   0.7410  20.7183   0.8448  20.3118   0.7102     1.503     1.304 -89.79  3.83     13.75114   0  0.663
       404   2288.2910   2811.0776  18.7561   0.3424  19.0573   0.3931  18.7002   0.3345     3.140     2.185 -30.25  4.57     13.74389   0  0.009
       405   7168.9556   2813.9360  18.1088   0.2540  18.1360   0.2572  18.0606   0.2488     2.046     1.925  89.77  3.50     13.77753   0  0.979
       406   4639.4829   2825.4653  18.7508   0.3415  19.1566   0.4115  18.5607   0.3136     2.487     2.143 -75.62  5.29     13.87945   0  0.309
       407   6097.6904   2982.5056  13.7979   0.0349  13.8146   0.0352  13.8808   0.0362    14.206     8.191 -89.32  3.50     14.02135   0  0.029
       408   5216.2314   2837.5024  20.9481   0.9401  21.8009   1.3910  20.7693   0.8829     1.026     0.986 -85.63  6.07     13.81597   0  0.500
       409   5108.9326   2852.7285  18.0672   0.2493  18.5909   0.3171  17.9451   0.2359     3.215     2.683  68.03  5.71     13.82922   0  0.069
       410    966.7823   2880.0457  14.2634   0.0432  14.2509   0.0430  14.2346   0.0427     2.572     2.401 -78.67  3.50     13.74481   0  0.995
       411   1418.3754   2896.8362  14.3663   0.0453  14.3536   0.0451  14.3360   0.0447     2.532     2.400 -77.07  3.50     13.76496   0  0.998
       412   4635.0195   2881.7649  18.8202   0.3526  19.2470   0.4290  18.6168   0.3218     2.573     2.086  49.29  5.34     13.88107   0  0.282
       413   2296.3582   2894.2681  18.8563   0.3585  19.0882   0.3988  18.7105   0.3361     2.550     1.990 -73.01  4.36     13.74141   0  0.376
       414    258.8988   2905.1477  18.5716   0.3145  18.9184   0.3688  18.4578   0.2990     3.110     2.129 -50.71  5.04     13.70774   0  0.029
       415    468.7418   2903.4370  19.0403   0.3904  19.6795   0.5236  18.8239   0.3543     2.355     2.181  83.58  5.85      13.7182   0  0.030
       416   4179.0679   2914.7078  17.7790   0.2182  17.8060   0.2209  17.7231   0.2129     2.166     1.993 -77.46  3.50     13.85549   0  0.982
       417   4445.6357   2920.9729  17.0451   0.1556  17.0584   0.1566  17.0115   0.1533     2.231     2.061 -79.01  3.50     13.90457   0  0.984
       418    520.8855   2915.7588  19.2056   0.4212  19.6726   0.5219  19.0698   0.3971     2.339     1.951  -5.87  5.14     13.71415   0  0.179
       419   6780.3296   2930.0432  18.8848   0.3634  19.7447   0.5395  18.5246   0.3084     2.149     1.969  73.50  6.63     13.79363   0  0.543
       420   7233.9355   2931.7891  20.3316   0.7078  21.7448   1.3555  20.2402   0.6865     1.250     1.025  63.93  7.47     13.78692   0  0.357
       421   5813.4746   2935.7336  19.2440   0.4285  19.3615   0.4522  19.2283   0.4274     1.822     1.725 -83.40  3.75     13.81901   0  0.957
       422   7059.5010   2944.1519  17.2506   0.1711  17.2663   0.1723  17.2113   0.1681     2.205     2.044 -87.90  3.50     13.78418   0  0.989
       423   7202.2632   2950.5027  21.1105   1.0129  21.7787   1.3768  21.1133   1.0423     1.023     0.983 -86.71  5.34     13.78956   0  0.531
       424   1358.7126   3004.8604  17.4448   0.1872  17.9065   0.2314  17.4364   0.1865     6.019     3.174 -80.95  5.23      13.7618   0  0.026
       425   6626.3965   2968.2947  17.6795   0.2084  17.7076   0.2111  17.5921   0.2004     2.136     1.980 -89.60  3.50     13.79231   0  0.981
       426   2127.7778   2965.3789  20.0242   0.6142  22.0935   1.5918  19.4895   0.4827     1.169     0.905 -23.54  8.51      13.7427   0  0.073
       427   6212.0796   2978.0305  20.3931   0.7279  21.1311   1.0217  20.0926   0.6404     1.430     1.186 -32.68  5.80     13.91564   0  0.264
       428   6048.1528   2981.5000  19.7452   0.5399  19.8985   0.5791  18.6413   0.3255     1.710     1.570  89.12  4.31     14.01448   0  0.930
       429   1607.6479   3011.8430  17.7701   0.2173  17.7951   0.2198  17.7316   0.2137     2.156     2.037 -77.94  3.50     13.74791   0  0.982
       430   7687.7896   3009.9797  20.3175   0.7027  20.5433   0.7794  20.1938   0.6716     1.559     1.370  89.57  3.87     13.78667   0  0.604
       431   3408.8469   3012.2971  20.4150   0.7350  20.7050   0.8397  20.2685   0.6958     1.435     1.367 -84.71  4.23     13.77772   0  0.654
       432   2282.0354   3026.7991  19.9027   0.5804  20.0916   0.6330  19.7438   0.5437     1.635     1.564  64.96  3.83     13.74108   0  0.863
       433    170.9649   3031.3752  20.4543   0.7488  21.1095   1.0116  20.4827   0.7701     1.414     1.238 -77.31  5.65     13.72107   0  0.469
       434   2493.4998   3046.7600  20.6388   0.8153  21.5735   1.2527  20.2767   0.6984     1.246     1.038  89.88  6.42     13.74982   0  0.626
       435   1477.2517   3047.0759  19.5296   0.4887  19.6378   0.5136  19.5333   0.4927     1.814     1.651 -79.26  3.50     13.74727   0  0.937
       436   7155.6216   3070.3853  15.3979   0.0729  15.3919   0.0727  15.3675   0.0719     2.360     2.216 -84.28  3.50     13.80927   0  0.986
       437   5337.2510   3061.7566  19.9329   0.5888  20.3338   0.7077  19.5660   0.5003     1.739     1.530  75.41  5.11     13.83188   0  0.845
       438   1168.9380   3072.7141  18.2099   0.2662  18.6795   0.3304  17.8804   0.2289     3.034     2.399  44.63  5.68     13.78115   0  0.163
       439     63.0258   3073.0439  20.6125   0.8053  21.1793   1.0447  21.4197   1.2111     1.217     1.189 -87.64  5.45     13.72966   0  0.557
       440   5369.2700   3083.4602  18.0407   0.2461  18.0724   0.2497  17.9930   0.2412     2.071     1.946  85.48  3.50     13.82912   0  0.982
       441   2240.1604   3112.0146  14.1689   0.0414  14.1556   0.0411  14.1401   0.0408     2.538     2.381 -75.45  3.50     13.76102   0  0.999
       442   6807.1875   3081.0764  18.7345   0.3388  18.7873   0.3471  18.6875   0.3325     1.952     1.841 -82.94  3.50     13.80927   0  0.971
       443   6917.1045   3086.5129  20.6864   0.8332  21.1324   1.0223  20.7575   0.8779     1.335     1.240 -87.96  4.92     13.80865   0  0.537
       444   1179.6660   3090.7083  19.3266   0.4455  21.3274   1.1186  18.7695   0.3454     1.604     1.367 -34.07  8.56     13.78071   0  0.006
       445   1144.7438   3091.9478  19.4374   0.4688  20.0986   0.6351  18.9942   0.3834     2.191     2.053 -59.56  5.66     13.78043   0  0.000
       446   1331.0527   3100.1311  20.9111   0.9241  21.6306   1.2860  20.8132   0.9017     1.206     0.973 -78.48  5.46     13.76027   0  0.537
       447   5471.8789   3101.2781  19.0112   0.3849  19.0727   0.3959  18.9375   0.3734     1.874     1.777 -88.35  3.50     13.81871   0  0.964
       448   6055.9712   3102.5669  20.5735   0.7907  20.9258   0.9295  20.3611   0.7269     1.409     1.223 -85.00  4.40     13.87545   0  0.593
       449   8347.3369   3116.6650  19.3927   0.4592  19.8256   0.5601  19.3979   0.4626     3.525     1.562 -75.24  4.92     13.77494   0  0.000
       450   5665.8857   3112.8599  20.1426   0.6482  20.3281   0.7059  20.1112   0.6460     1.598     1.498  52.87  3.76     13.83127   0  0.731
       451   3350.5134   3140.2351  18.8729   0.3615  19.3856   0.4574  18.8366   0.3563     5.080     1.784 -72.55  5.03     13.79007   0  0.000
       452   4506.3716   3282.1084  13.9776   0.0379  14.0438   0.0391  14.1585   0.0412    12.508    12.083 -15.55  3.87     14.36242   2  0.029
       453   8386.6025   3124.3911  19.1563   0.4119  19.8528   0.5671  19.0540   0.3942     3.153     1.808  35.66  5.80     13.76674   0  0.000
       454    318.2383   3140.8113  18.4997   0.3043  18.9643   0.3767  18.3169   0.2801     3.676     2.308 -68.91  5.32      13.7314   0  0.069
       455   4501.4385   3129.6033  19.0149   0.3855  19.0883   0.3988  18.8629   0.3607     1.900     1.750  81.55  3.50     14.01745   0  0.968
       456   5691.6045   3138.7834  19.7406   0.5387  19.8935   0.5778  19.4657   0.4774     1.668     1.592 -83.39  3.88     13.83392   0  0.897
       457   1353.5624   3158.3057  17.0640   0.1570  17.0773   0.1579  17.0253   0.1543     2.261     2.119 -77.39  3.50      13.7569   0  0.984
       458   5319.0537   3179.9485  19.5276   0.4883  19.6400   0.5141  19.4418   0.4721     1.904     1.586 -78.74  3.50     13.87692   0  0.947
       459   1305.5526   3203.2842  18.2562   0.2720  18.6430   0.3249  18.1632   0.2609     3.681     2.865  19.93  5.10     13.75395   0  0.008
       460   2633.4741   3193.4729  20.8626   0.9036  21.5328   1.2293  20.6007   0.8146     1.071     1.062 -47.63  5.39     13.75274   0  0.488
       461   5119.7466   3199.6663  18.0591   0.2482  18.0885   0.2516  18.0215   0.2444     2.044     1.926  86.32  3.50     13.85831   0  0.980
       462   6522.4497   3195.8406  20.2520   0.6823  21.3254   1.1174  19.6640   0.5237     1.351     1.177  35.77  6.95     13.82325   0  0.605
       463   1573.4390   3206.9319  19.1475   0.4103  19.9836   0.6024  19.1739   0.4168     3.097     1.786  69.13  6.17     13.77207   0  0.001
       464   3019.1433   3201.0190  20.5495   0.7821  20.9514   0.9405  20.2190   0.6797     1.259     1.234 -81.07  4.97     13.78291   0  0.524
       465   3338.7000   3224.1106  18.8691   0.3609  19.5101   0.4843  18.7694   0.3454     3.848     2.030 -86.93  5.73     13.78923   0  0.000
       466   2779.1768   3209.1675  20.0555   0.6229  20.3752   0.7213  19.8033   0.5590     1.688     1.456 -56.05  4.70     13.77494   0  0.844
       467   8035.4609   3247.6116  14.0507   0.0392  14.0360   0.0389  14.0211   0.0387     2.510     2.361 -80.57  3.50     13.81348   0  0.999
       468   6896.8901   3213.4585  19.5511   0.4940  21.5889   1.2617  19.2898   0.4399     1.475     1.182 -59.20  8.49     13.83963   0  0.007
       469   4412.4404   3217.8567  20.9156   0.9261  21.6523   1.2989  19.8802   0.5795     1.091     0.982 -74.89  5.95     14.06484   0  0.608
       470   7216.0127   3223.0505  20.7861   0.8725  21.3314   1.1205  20.9530   0.9645     1.205     1.194  76.86  5.56     13.82221   0  0.605
       471   1007.6023   3251.7100  16.2039   0.1056  16.2060   0.1057  16.1764   0.1043     2.356     2.210 -78.85  3.50     13.74479   0  0.988
       472   1308.8838   3254.5857  18.8929   0.3645  18.9502   0.3742  18.8163   0.3530     1.954     1.837 -84.66  3.50     13.75052   0  0.968
       473    304.4264   3259.1628  20.8181   0.8854  21.6246   1.2825  20.6777   0.8451     1.231     0.983 -75.45  5.89     13.72053   0  0.610
       474    400.7104   3263.3662  20.3381   0.7098  20.9266   0.9299  20.4198   0.7474     1.451     1.366  68.74  5.48      13.7254   0  0.691
       475   1622.4545   3269.5991  19.6991   0.5288  20.2873   0.6927  19.4955   0.4841     1.861     1.761 -50.01  5.59     13.79373   0  0.145
       476   4471.3037   3305.6594  16.1897   0.1049  16.1810   0.1045  16.0092   0.0966     2.590     2.346  73.08  3.50     14.33139   3  0.983
       477   5531.1685   3284.6367  17.0383   0.1551  17.0494   0.1559  16.9908   0.1519     2.197     2.064 -84.77  3.50     13.86212   0  0.983
       478   1726.8235   3304.0029  14.6794   0.0523  14.6686   0.0521  14.6476   0.0516     2.485     2.343 -75.01  3.50     13.76453   0  0.999
       479   5716.2139   3282.7417  17.7978   0.2201  17.8241   0.2228  17.7887   0.2194     2.091     1.958 -88.70  3.50     13.84435   0  0.981
       480   3593.4529   3279.3779  20.3506   0.7135  20.6153   0.8057  20.0442   0.6259     1.464     1.366 -58.59  4.35     13.81863   0  0.648
       481   1636.4161   3304.1570  19.8424   0.5648  20.3538   0.7143  19.8323   0.5667     1.969     1.508 -76.62  5.09     13.80324   0  0.308
       482   1586.6412   3354.0391  17.2096   0.1679  17.5055   0.1924  17.1375   0.1625     5.874     2.953  64.84  4.93     13.78276   0  0.025
       483   1548.7454   3313.5803  18.8536   0.3581  19.2450   0.4287  18.6795   0.3313     2.878     2.375 -54.45  4.98     13.77342   0  0.002
       484   4102.6982   3332.6238  15.3824   0.0724  15.3753   0.0721  15.3492   0.0713     2.371     2.235 -78.17  3.50     13.91113   0  0.986
       485   1384.6774   3316.2249  19.9010   0.5805  20.8242   0.8871  19.8449   0.5700     2.132     1.277 -40.13  6.29     13.74503   0  0.001
       486   5755.5747   3323.7224  19.7609   0.5437  19.9171   0.5841  19.5458   0.4956     1.680     1.610  77.04  3.94     13.84383   0  0.898
       487   3622.2563   3326.7683  20.0340   0.6166  20.2250   0.6731  20.0913   0.6400     1.583     1.519 -82.38  4.06     13.82913   0  0.797
       488   1793.3656   3335.8982  19.7980   0.5531  19.9369   0.5895  19.6551   0.5216     1.635     1.606 -78.58  3.60     13.75369   0  0.900
       489   5373.1079   3361.7866  19.8743   0.5733  20.6560   0.8210  19.5751   0.5024     1.693     1.510 -32.91  6.25     13.88948   0  0.341
       490   3207.4385   3377.1130  19.2548   0.4306  19.3488   0.4496  19.2268   0.4272     1.873     1.714 -79.78  3.67     13.81109   0  0.961
       491    243.1717   3380.8767  20.3289   0.7069  21.7955   1.3876  20.1289   0.6514     1.333     0.965  60.61  7.58     13.73308   0  0.180
       492   3103.2527   3384.1646  20.5976   0.7998  21.0678   0.9924  20.6554   0.8361     1.333     1.290 -64.18  5.09     13.79973   0  0.668
       493   7537.7471   3386.9109  19.1127   0.4033  19.1760   0.4152  19.1045   0.4035     1.863     1.725 -78.02  3.50     13.84543   0  0.964
       494   4045.8806   3387.6216  20.5667   0.7887  21.6779   1.3144  19.9878   0.6095     1.259     0.983 -15.00  6.80      13.8963   0  0.558
       495   1168.5288   3397.0654  19.9047   0.5811  20.1747   0.6577  19.6997   0.5325     1.620     1.530 -89.24  4.62      13.7295   0  0.885
       496   3794.5999   3402.6921  19.1003   0.4012  19.5494   0.4931  18.9051   0.3678     2.233     2.166  -9.77  5.17     13.85338   0  0.163
       497   5264.6899   3417.9558  17.3117   0.1759  17.3282   0.1773  17.1589   0.1641     2.266     2.041 -85.34  3.50     13.90035   2  0.982
       498   5256.3154   3435.3997  14.6623   0.0519  14.6507   0.0517  14.6263   0.0511     2.435     2.307 -82.05  3.50     13.89612   2  0.995
       499   7418.9893   3420.9810  20.2366   0.6772  20.6589   0.8220  20.2506   0.6899     1.597     1.549 -15.08  4.54     13.85656   0  0.566
       500     31.6885   3440.9697  16.3906   0.1151  16.3952   0.1154  16.3543   0.1132     2.374     2.188 -84.27  3.50     13.72583   0  0.985
       501   6742.4746   3441.7510  16.6351   0.1288  16.6398   0.1291  16.5917   0.1263     2.244     2.119 -83.62  3.50      13.8448   0  0.986
       502   7545.9604   3437.7678  20.2858   0.6930  21.4165   1.1653  19.9951   0.6116     1.337     1.133  34.61  7.09     13.87055   0  0.569
       503   2588.0300   3443.6692  19.8961   0.5791  21.8368   1.4143  19.5928   0.5066     1.309     1.038   1.06  8.58      13.7519   0  0.035
       504    284.2633   3451.6311  18.2706   0.2738  18.7104   0.3351  18.0852   0.2517     2.800     2.446  50.99  5.60     13.73404   0  0.078
       505   1851.9705   3457.9739  16.6481   0.1296  16.6540   0.1300  16.6149   0.1277     2.271     2.134 -76.67  3.50     13.77053   0  0.983
       506   7517.1079   3450.4084  20.4545   0.7491  21.8041   1.3931  20.2852   0.7013     1.268     0.993 -13.62  7.43     13.87136   0  0.066
       507   3749.9026   3458.7673  19.6539   0.5181  20.9454   0.9381  19.5929   0.5066     1.772     1.476  50.89  7.41     13.85067   0  0.001
       508   2532.3635   3486.0027  14.9045   0.0581  14.8954   0.0578  14.8733   0.0572     2.446     2.302 -73.34  3.50     13.74364   0  0.990
       509   4531.0449   3477.3169  19.6543   0.5176  19.7701   0.5459  19.6527   0.5210     1.732     1.581 -74.85  3.50     13.99359   0  0.931
       510    804.0726   3477.5955  20.2254   0.6740  22.0632   1.5697  19.9827   0.6081     1.226     0.928  -9.63  8.32     13.71789   0  0.081
       511   7652.6157   3495.4133  16.5160   0.1220  16.5211   0.1222  16.4817   0.1201     2.254     2.119 -79.17  3.50     13.87783   0  0.984
       512    555.9585   3494.2742  19.7295   0.5363  20.8651   0.9040  19.2148   0.4248     1.647     1.454  -2.54  7.06     13.71792   0  0.088
       513   5388.1914   3535.6855  15.4871   0.0759  15.4801   0.0757  15.4559   0.0749     2.358     2.227 -84.00  3.50     13.87142   0  0.985
       514    136.7421   3537.1560  20.3391   0.7101  22.2386   1.7017  20.2468   0.6887     1.339     0.675  58.30  8.38     13.72974   0  0.412
       515   7553.0405   3833.6406  12.8712   0.0228  12.9173   0.0233  13.6433   0.0325    44.118    14.355  -0.97  3.54      15.0783   2  0.002
       516   6780.5088   3541.7690  19.9919   0.6048  20.2002   0.6655  19.8236   0.5644     1.717     1.418 -89.29  4.00     13.84891   0  0.807
       517   4304.2832   3545.2307  19.8230   0.5594  19.8461   0.5653  99.0000  99.0000     1.508     1.393  -4.47  3.50     13.91208   0  0.911
       518   4929.5015   3549.4773  19.9478   0.5931  21.6759   1.3132  19.9063   0.5867     1.458     1.012  -0.47  8.35     13.87932   0  0.076
       519   3354.8691   3549.6292  19.0069   0.3844  19.8086   0.5557  18.6388   0.3251     2.441     1.894 -53.79  6.33     13.79593   0  0.080
       520   1604.0984   3556.5154  18.6822   0.3310  19.1694   0.4140  18.5254   0.3085     2.572     2.403 -76.08  5.47     13.75719   0  0.102
       521   2306.1018   3554.4805  19.7648   0.5447  19.8972   0.5788  19.5891   0.5057     1.751     1.554 -68.12  3.66     13.74444   0  0.921
       522    398.4295   3557.4883  19.6638   0.5199  19.7999   0.5534  19.5509   0.4968     1.743     1.676 -79.63  3.85     13.73537   0  0.948
       523   6552.5054   3556.7371  21.0443   0.9827  21.8388   1.4155  20.5017   0.7770     1.007     0.998   4.50  5.85      13.8359   0  0.480
       524   6738.2832   3562.0645  20.3507   0.7135  20.5877   0.7955  20.0218   0.6194     1.524     1.380 -80.30  4.08     13.85032   0  0.816
       525   1391.8367   3577.1877  18.4986   0.3042  19.1140   0.4036  18.4784   0.3018     3.760     2.676 -53.82  5.43     13.73274   0  0.000
       526   1790.5000   3564.5417  19.8714   0.5726  20.7351   0.8515  19.7866   0.5547     1.928     1.448 -17.40  6.25     13.74425   0  0.014
       527    655.2405   3582.7920  15.6873   0.0833  15.6839   0.0831  15.6545   0.0820     2.417     2.270 -77.62  3.50     13.73011   0  0.988
       528   7824.2778   3575.5317  18.7096   0.3350  18.7642   0.3435  18.6134   0.3213     1.963     1.800 -86.44  3.50     13.86725   0  0.971
       529      6.5087   3585.8867  20.8774   0.9100  21.8307   1.4102  20.9750   0.9661     1.107     0.989  72.98  6.25     13.76411  16  0.548
       530   6342.6084   3593.0312  19.1578   0.4121  20.0072   0.6089  18.8667   0.3614     2.257     1.817 -69.53  6.58     13.83429   0  0.068
       531   6636.9629   3602.5664  20.4655   0.7523  20.8194   0.8851  20.2957   0.7048     1.404     1.222  87.63  4.57     13.85583   0  0.641
       532   6404.6270   3614.5808  17.7908   0.2194  17.8181   0.2221  17.7611   0.2167     2.125     1.946  89.81  3.50     13.83381   0  0.981
       533   1174.1659   3637.7620  18.6129   0.3208  19.5102   0.4844  18.5412   0.3108     5.019     1.958  87.22  6.07     13.73225   0  0.000
       534   8024.0830   3620.2014  19.7548   0.5425  20.2999   0.6968  19.8425   0.5694     1.959     1.661 -83.84  5.26     13.84688   0  0.023
       535   2102.5117   3624.4961  20.5452   0.7810  21.9941   1.5205  20.6267   0.8247     1.165     0.872 -45.59  7.78     13.76157   0  0.444
       536   3149.1572   3627.5105  19.6497   0.5166  19.8042   0.5545  19.4755   0.4796     1.768     1.585 -81.70  3.97     13.78755   0  0.926
       537   7726.7866   3640.1499  20.3678   0.7196  21.1907   1.0502  19.5255   0.4909     1.582     1.093 -74.73  6.19     13.93335   0  0.290
       538   2593.6416   3649.9556  19.6156   0.5088  20.2721   0.6879  19.3489   0.4521     1.895     1.870 -52.00  5.60     13.75095   0  0.049
       539    622.9490   3649.5408  19.6253   0.5113  20.7310   0.8499  19.6393   0.5177     2.096     1.627 -59.77  6.63     13.72863   0  0.001
       540    677.8170   3650.0391  19.5650   0.4970  20.0384   0.6177  19.3915   0.4612     2.103     1.664  10.55  5.18     13.72212   0  0.211
       541   4427.3823   3655.1985  19.2017   0.4202  19.2810   0.4358  19.1208   0.4066     1.819     1.702  86.73  3.50     13.90764   0  0.960
       542   2157.5745   3665.6189  21.0850   1.0008  21.6193   1.2793  21.4730   1.2435     1.092     0.974 -45.62  4.54     13.75769   0  0.505
       543   5126.2656   3674.9221  20.5198   0.7714  20.8927   0.9154  20.3429   0.7207     1.317     1.276  74.28  4.54     13.88161   0  0.646
       544   4970.9082   3683.7874  18.7933   0.3484  19.4437   0.4698  18.7825   0.3475     3.197     2.539 -26.96  5.39     13.87306   0  0.000
       545   5174.9370   3693.0779  18.1248   0.2559  18.1626   0.2603  18.0548   0.2482     2.049     1.937 -84.44  3.50     13.88149   0  0.979
       546   7985.0532   3690.5066  20.5946   0.7985  20.9162   0.9254  20.5762   0.8051     1.415     1.215  88.32  4.60     13.84599   0  0.573
       547   6571.7593   3707.4841  18.4639   0.2994  18.9147   0.3682  18.4229   0.2942     4.440     2.596  31.68  4.91     13.85648   0  0.000
       548   3421.2871   3703.0178  20.3296   0.7072  21.3528   1.1317  20.1049   0.6441     1.364     1.279  -3.77  6.58     13.79249   0  0.044
       549   7287.8281   3703.9563  20.1360   0.6467  20.8058   0.8796  19.7635   0.5487     1.646     1.368  85.24  5.81     13.91897   0  0.658
       550   4003.0107   3736.6123  14.2588   0.0431  14.2460   0.0429  14.2297   0.0426     2.509     2.355 -72.95  3.50     13.87317   0  0.996
       551   7551.1245   3783.1875  14.4431   0.0470  14.7197   0.0533  15.4917   0.0761    48.175     5.848  -0.00  4.43     14.81539   3  0.000
       552   6793.0786   3718.1592  17.1229   0.1613  17.1357   0.1622  17.0800   0.1582     2.196     2.054 -83.26  3.50     13.85668   0  0.983
       553   7017.3613   3720.7944  19.3405   0.4479  19.4468   0.4703  19.2756   0.4370     1.831     1.676 -81.11  3.50     13.86648   0  0.953
       554   7914.9927   3722.1267  20.1979   0.6656  21.6382   1.2907  20.2297   0.6831     1.756     0.868  33.06  7.63      13.8765   0  0.050
       555   2028.0953   3753.7354  14.9571   0.0595  14.9408   0.0590  14.9198   0.0585     2.631     2.308 -85.73  3.50     13.75739   0  0.995
       556   5840.0259   3726.5256  21.0652   0.9920  21.8575   1.4277  21.5806   1.3117     1.068     0.797 -89.64  6.10     13.83727   0  0.489
       557   5750.8945   3741.5730  20.0844   0.6312  20.3251   0.7049  19.5478   0.4961     1.519     1.498  30.29  4.69     13.86479   0  0.700
       558   5755.7065   3755.3667  18.2055   0.2656  18.2454   0.2705  18.0975   0.2531     2.032     1.916 -82.85  3.50     13.86308   0  0.978
       559   1092.0726   3760.6118  19.8087   0.5564  21.3202   1.1149  19.6704   0.5253     1.538     1.384   5.28  7.80     13.72686   0  0.003
       560   5299.5410   3780.1348  16.4081   0.1160  16.4104   0.1162  16.3725   0.1142     2.271     2.139 -82.52  3.50     13.87366   0  0.987
       561   3179.7820   3784.6248  19.5576   0.4953  19.9395   0.5902  19.4958   0.4842     2.266     1.585  76.23  4.75     13.77996   0  0.592
       562   6022.7256   3794.5876  19.6003   0.5051  19.9228   0.5857  19.4784   0.4803     2.178     1.702  73.41  4.59     13.82858   0  0.174
       563   2343.2261   3796.0215  19.8184   0.5583  19.9874   0.6033  19.8214   0.5638     1.658     1.568 -84.30  3.89       13.749   0  0.890
       564   8254.4287   3822.2322  14.8854   0.0576  14.8752   0.0573  14.8534   0.0567     2.400     2.266 -81.27  3.50     13.78556   0  0.992
       565   5490.7905   3799.1123  19.7336   0.5372  20.2801   0.6905  19.2598   0.4338     1.865     1.686   2.86  5.36     13.86819   0  0.189
       566   1457.7548   3846.8030  16.9527   0.1492  17.3091   0.1757  16.8848   0.1446     4.550     4.080 -60.56  5.26     13.77001   0  0.043
       567   6189.0464   3817.1643  19.6945   0.5273  19.8140   0.5570  19.5642   0.4999     1.701     1.583  88.43  3.64     13.81405   0  0.928
       568    198.9303   3821.1943  19.8549   0.5682  20.5062   0.7662  19.8097   0.5607     1.733     1.616  21.28  5.83     13.71231   0  0.166
       569   7386.4927   3834.6616  18.0880   0.2516  18.1188   0.2551  18.0736   0.2503     2.054     1.900 -87.49  3.50     14.08383   0  0.979
       570   1498.3263   3850.7612  16.3779   0.1144  16.3808   0.1146  16.3095   0.1109     2.326     2.178 -72.87  3.50     13.76092   0  0.985
       571   6655.9878   3869.8140  15.6087   0.0803  15.6042   0.0801  15.5787   0.0792     2.348     2.195 -82.77  3.50     13.86696   0  0.984
       572    463.6260   3858.6094  20.9103   0.9238  21.7400   1.3525  20.9026   0.9413     1.116     0.967 -47.68  6.00     13.73335   0  0.486
       573   1941.0813   3866.7935  20.0555   0.6231  20.6517   0.8193  19.8290   0.5658     1.699     1.523 -36.97  5.50     13.75432   0  0.199
       574   2322.6123   3872.2256  18.8495   0.3573  18.9034   0.3662  18.7670   0.3450     1.931     1.815 -73.62  3.50      13.7541   0  0.972
       575    366.5218   3877.5012  21.0890   1.0032  21.9794   1.5101  21.5347   1.2821     0.935     0.925  82.25  6.25     13.72126   0  0.528
       576   3969.5864   3883.1379  20.9354   0.9346  21.7149   1.3369  20.8978   0.9392     1.094     0.986 -72.44  5.84     13.85072   0  0.513
       577    831.8703   3898.1440  19.9820   0.6026  20.8390   0.8932  19.9232   0.5913     1.763     1.594 -43.18  6.10     13.71476   0  0.001
       578   2509.4685   3903.6055  20.8596   0.9022  21.4029   1.1580  20.9728   0.9737     1.164     1.034 -75.03  4.81     13.75125   0  0.524
       579   3230.5488   3904.6204  18.7203   0.3369  19.3607   0.4521  18.4799   0.3021     3.250     1.993  19.74  5.98     13.77461   0  0.056
       580    226.3423   3915.7996  20.8621   0.9036  21.8534   1.4250  20.3658   0.7285     1.148     0.894 -63.84  6.49     13.71858   0  0.608
       581   6228.7690   4298.1646  10.4443   0.0074  10.3805   0.0072  15.2830   0.0691  1229.631    15.121  -0.00  3.50     4.992964  16  0.032
       582   3233.9792   3921.7483  20.0843   0.6316  20.9794   0.9528  18.8773   0.3631     1.735     1.220 -73.88  6.45     13.77709   0  0.081
       583    904.1311   3935.9697  18.8940   0.3648  19.2158   0.4229  18.8529   0.3590     2.636     2.052 -54.64  4.61     13.72714   0  0.044
       584   6664.9551   3976.9797  14.1886   0.0418  14.1745   0.0415  14.1578   0.0412     2.720     2.573 -87.03  3.50     13.87079   0  1.000
       585   8061.3452   3945.0820  19.1451   0.4094  19.2124   0.4222  19.1072   0.4040     1.851     1.727 -78.71  3.58     13.83147   0  0.963
       586     92.6688   3956.4668  18.4275   0.2944  18.8576   0.3586  18.3562   0.2853     4.126     2.505  42.01  5.14     13.73087   0  0.000
       587   3242.8757   3949.2671  19.6954   0.5279  20.4035   0.7309  19.4595   0.4761     2.641     1.391 -86.07  5.58     13.78013   0  0.002
       588   4353.5088   3952.5391  21.1968   1.0541  22.0047   1.5278  20.8453   0.9157     0.938     0.919 -74.26  5.76      13.8458   0  0.475
       589   7015.8936   3954.9900  19.9123   0.5830  20.0477   0.6203  19.8106   0.5609     1.631     1.549  82.74  3.70     13.85866   0  0.891
       590    228.0698   3979.7341  15.3299   0.0706  15.3240   0.0704  15.3029   0.0698     2.431     2.296 -84.58  3.50     13.71648   0  0.997
       591   5860.3198   3967.0684  19.9093   0.5822  20.0860   0.6314  19.8221   0.5640     1.597     1.546  79.36  3.91     13.83398   0  0.841
       592    450.3051   3976.0720  20.0504   0.6214  20.2680   0.6866  20.0880   0.6390     1.638     1.529 -81.31  4.06     13.71686   0  0.838
       593   7578.9097   3978.3857  20.6048   0.8023  20.9784   0.9523  20.1688   0.6638     1.372     1.224 -78.70  4.82      14.2019   0  0.544
       594   1099.0731   3993.0850  20.3657   0.7185  20.6262   0.8097  20.1898   0.6704     1.557     1.379 -69.53  3.87     13.73782   0  0.803
       595   4915.5610   4038.2415  15.3224   0.0704  15.3075   0.0699  15.2822   0.0691     2.689     2.247 -61.55  3.50     13.86676   0  0.986
       596      9.0600   4009.9604  18.1776   0.2622  18.2194   0.2672  18.1515   0.2593     2.175     1.980 -76.07  3.50     13.74776  16  0.979
       597   8272.5586   4015.5293  20.2008   0.6659  20.4936   0.7618  19.9624   0.6023     1.447     1.419  86.85  4.32     13.78177   0  0.673
       598   8451.2598   4052.1824  15.1324   0.0645  15.1233   0.0642  15.0984   0.0635     2.407     2.257 -74.84  3.50     13.75265   0  0.994
       599   1319.7239   4031.7600  19.6388   0.5140  19.7921   0.5514  19.5410   0.4945     1.747     1.654 -88.43  3.86     13.74266   0  0.929
       600   2746.3027   4037.9258  19.5807   0.5008  20.2638   0.6853  19.5644   0.4999     2.636     1.468  22.15  5.75     13.76791   0  0.004
       601   6531.4731   4044.7209  21.0610   0.9902  21.7700   1.3713  20.2266   0.6821     1.007     0.991  -5.66  5.85     13.83838   0  0.488
       602   6205.5947   4044.9563  20.2375   0.6778  21.2004   1.0549  19.3540   0.4532     1.409     1.260  10.93  6.68     13.82527   0  0.427
       603   5552.9805   4071.4858  15.1179   0.0641  15.1082   0.0638  15.0850   0.0631     2.378     2.259 -81.27  3.50     13.86327   0  0.993
       604      4.6219   4075.3933  20.9016   0.9200  21.7872   1.3822  20.5828   0.8020     1.113     0.978  46.95  6.00     13.73824  16  0.559
       605   3225.7720   4082.4802  19.4979   0.4816  19.6017   0.5051  19.4877   0.4823     1.805     1.650 -59.86  3.50      13.7719   0  0.945
       606   1582.4625   4082.7566  19.3352   0.4469  19.4444   0.4698  19.2274   0.4273     1.903     1.719 -66.77  3.60     13.75292   0  0.954
       607   1535.4601   4090.9341  19.0038   0.3841  20.4902   0.7607  18.9675   0.3787     2.546     1.794  38.36  7.71     13.74971   0  0.002
       608   3490.8403   4105.0967  18.9245   0.3698  18.9927   0.3816  18.9424   0.3743     1.948     1.802 -71.32  3.50     13.81222   0  0.969
       609   8089.0630   4107.4253  19.3283   0.4454  19.4156   0.4636  19.1813   0.4182     1.790     1.701  88.75  3.54     13.82176   0  0.954
       610   8215.2803   4113.4946  21.1650   1.0386  21.8202   1.4034  21.1772   1.0753     1.016     0.985  87.57  5.36      13.8031   0  0.495
       611   1998.7511   4118.5063  21.0555   0.9877  21.8325   1.4113  21.0888   1.0300     1.019     0.988 -78.51  5.75     13.76878   0  0.498
       612   5541.1050   4123.5947  19.4586   0.4730  19.5523   0.4938  19.3741   0.4575     1.745     1.659 -82.24  3.59     13.86417   0  0.952
       613   3846.5613   4138.6807  20.5098   0.7679  20.8822   0.9111  20.1460   0.6567     1.375     1.300  60.25  4.43     13.81015   0  0.518
       614   1399.7856   4139.0283  19.4833   0.4784  19.6004   0.5048  19.4366   0.4710     1.835     1.684 -79.18  3.64     13.74653   0  0.947
       615   2940.5735   4168.3604  15.4104   0.0733  15.4046   0.0731  15.3794   0.0723     2.376     2.241 -75.57  3.50     13.80106   0  0.988
       616   3587.1890   4149.9175  18.9798   0.3794  19.0427   0.3905  18.8974   0.3665     1.958     1.809 -62.33  3.50     13.81693   0  0.967
       617    461.5851   4153.9971  18.8525   0.3581  19.6638   0.5199  18.7928   0.3492     3.410     2.047  15.86  6.07     13.71673   0  0.000
       618   6304.4600   4157.8774  18.5802   0.3156  18.6333   0.3234  18.3981   0.2908     2.008     1.874 -75.06  3.50     13.84391   0  0.974
       619    611.5884   4159.8325  19.6748   0.5225  19.8216   0.5590  19.7378   0.5421     1.766     1.688 -74.64  3.56     13.71827   0  0.920
       620   4197.0000   4302.6694  14.9629   0.0597  14.4881   0.0479  15.1727   0.0657    24.132    14.211   0.91  3.50     3.711738   0  0.000
       621   5233.3218   4181.1465  17.4842   0.1905  17.5012   0.1920  17.4522   0.1879     2.153     2.039 -75.66  3.50     13.89341   0  0.982
       622   8210.4990   4176.2822  20.9344   0.9341  21.7532   1.3607  20.8042   0.8978     1.012     0.991  -2.40  6.21     13.80149   0  0.581
       623   7256.4658   4177.9712  19.5587   0.4957  20.2008   0.6657  19.6021   0.5088     2.201     1.886  89.10  5.35     13.86589   0  0.001
       624   1906.0336   4186.4282  19.0468   0.3916  19.5703   0.4979  19.0011   0.3846     3.167     1.958 -38.14  5.32     13.74597   0  0.006
       625   1254.8297   4194.8682  19.9130   0.5837  21.6449   1.2947  19.5676   0.5007     1.497     1.048 -44.53  8.05     13.72617   0  0.109
       626   3629.6973   4200.0210  19.5274   0.4884  19.8096   0.5559  19.6437   0.5188     2.390     1.692 -21.19  4.43     13.80904   0  0.038
       627   8435.6729   4236.6060  14.1521   0.0411  14.1420   0.0409  14.1583   0.0412     2.451     2.285 -75.74  3.50     13.77966   0  0.996
       628    470.5376   4213.4990  19.5577   0.4955  20.3226   0.7041  19.3478   0.4519     1.894     1.859  18.97  6.17     13.71855   0  0.001
       629   4764.9194   4227.9907  15.6672   0.0825  15.6668   0.0825  15.8369   0.0892     2.251     2.116 -76.46  3.50      13.8591   0  0.984
       630   3354.9580   4218.9141  19.9247   0.5867  20.6669   0.8251  19.5045   0.4861     1.675     1.496 -65.21  6.10     13.79863   0  0.548
       631   8533.8545   4225.9946  20.7776   0.8683  20.2912   0.6939  99.0000  99.0000     1.548     0.783  89.45  3.50     13.77775  16  0.693
       632    461.6752   4242.4624  19.8022   0.5546  20.5560   0.7840  19.5170   0.4890     2.396     1.340  17.16  5.83     13.71834   0  0.002
       633   4201.6367   4447.0298  13.9732   0.0378  13.7161   0.0336  14.7406   0.0538    26.280    21.534   4.23  3.50   0.02623122   0  0.000
       634   4329.3657   4437.5757  14.6188   0.0509  14.2039   0.0421  14.8570   0.0568    26.098    20.856 -28.89  3.50     1.440579   3  0.001
       635   6913.2441   4254.3433  20.2857   0.6923  20.4766   0.7558  99.0000  99.0000     1.449     1.397  82.65  3.50     13.83274   0  0.768
       636    292.0102   4265.6948  20.1583   0.6535  21.3399   1.1249  19.4534   0.4747     1.365     1.275 -89.08  7.04     13.67855   0  0.006
       637   2969.0044   4277.1626  20.6391   0.8152  21.1824   1.0461  19.4962   0.4843     1.305     1.174 -88.29  5.30     13.68006   0  0.630
       638   3049.9028   4284.6113  19.4503   0.4712  19.6366   0.5133  18.6943   0.3336     1.785     1.687 -87.17  4.23     13.62568   0  0.938
       639   1455.9902   4289.0811  18.4675   0.2996  18.5235   0.3074  18.1484   0.2591     2.132     1.922 -72.58  3.59     13.60289   0  0.975
       640   6462.8262   4351.7783  99.0000  99.0000  12.3442   0.0179  16.7486   0.1358  1207.851     8.008   0.00  0.00   0.03581969  16  0.000
       641    365.0486   4315.4087  15.6047   0.0802  15.5991   0.0799  15.9412   0.0936     2.430     2.294 -82.76  3.50     13.48218   0  0.987
       642   3637.7107   4296.4727  19.5153   0.4857  19.9002   0.5796  18.4103   0.2925     1.751     1.671 -85.40  5.38     13.49868   0  0.933
       643   1066.5034   4310.2134  20.0787   0.6300  21.3028   1.1059  99.0000  99.0000     1.477     1.171  -0.73  7.26     13.51327   0  0.240
       644   2570.7344   4323.9707  19.3633   0.4527  19.4086   0.4622  99.0000  99.0000     2.212     1.821  -9.60  3.50     13.41163   0  0.792
       645   2186.2659   4324.0898  20.1344   0.6458  20.7662   0.8638  99.0000  99.0000     1.887     1.618  -3.60  3.50     13.45184   0  0.001
       646   6797.4453   4409.8428  12.3175   0.0177  11.3846   0.0115  16.2489   0.1079  1173.167    10.737  -0.12  3.50     5.414468  18  0.000
       647   2428.5747   4435.1655  15.0517   0.0621  15.0426   0.0619  15.0960   0.0634     2.462     2.312 -69.27  3.50     13.72997   0  0.988
       648   3469.7722   4418.7603  20.3204   0.7035  20.6494   0.8184  99.0000  99.0000     1.543     1.401  84.46  3.50     13.57659   0  0.631
       649   2018.1940   4442.1538  18.8223   0.3532  20.2378   0.6772  18.6067   0.3203     2.570     2.084  15.44  7.45     13.74437   0  0.001
       650    334.6366   4467.8247  15.1529   0.0651  15.1460   0.0649  15.1249   0.0643     2.475     2.310 -79.28  3.50     13.75888   0  0.994
       651   2494.2991   4448.7646  18.9328   0.3716  20.1829   0.6603  18.8268   0.3547     3.477     1.370  42.41  7.34     13.80927   0  0.002
       652   3683.4255   4449.3164  19.8116   0.5565  19.9307   0.5878  19.5396   0.4942     1.675     1.608  80.53  3.69     13.80827   0  0.928
       653   4061.9846   4458.4819  20.9076   0.9225  21.5497   1.2390  99.0000  99.0000     1.141     0.981  -2.23  5.47     13.85274   0  0.508
       654   6363.4746   4464.5273  18.9299   0.3707  18.9130   0.3678  99.0000  99.0000     1.852     1.674 -83.93  3.50     13.84632   0  0.970
       655   1603.2391   4475.8716  18.2553   0.2720  19.1649   0.4132  18.2249   0.2684     3.654     2.947  25.92  6.47     13.78232   0  0.000
       656   1380.0814   4475.2954  18.8346   0.3550  19.4623   0.4737  18.6943   0.3336     2.414     1.963  62.91  6.09     13.77277   0  0.228
       657   7191.2354   4485.4565  18.8520   0.3577  18.8491   0.3571  99.0000  99.0000     1.846     1.697  86.44  3.50     13.83177   0  0.968
       658   1909.8879   4487.9058  20.5558   0.7848  21.5359   1.2312  19.8996   0.5848     1.396     1.062  56.38  6.49     13.76705   0  0.017
       659   7650.5020   4488.0552  20.2045   0.6670  20.5133   0.7687  99.0000  99.0000     1.689     1.483  86.13  3.50     13.84596   0  0.673
       660   4392.2832   4491.1943  21.0243   0.9729  21.2125   1.0607  99.0000  99.0000     1.173     1.048 -66.85  3.50     13.81685   0  0.528
       661   5776.8262   4528.6519  14.3948   0.0459  14.3803   0.0456  14.3566   0.0451     2.492     2.371 -84.84  3.50     13.88505   0  0.997
       662   7213.7729   4500.6875  20.5293   0.7750  21.3619   1.1364  99.0000  99.0000     1.585     1.066   8.99  5.31     13.83191   0  0.012
       663   3083.6926   4501.7031  20.3314   0.7078  21.3095   1.1093  20.5082   0.7794     1.647     1.111 -45.47  6.36     13.81096   0  0.006
       664   2324.2214   4505.5474  18.4961   0.3036  18.5409   0.3099  18.4609   0.2994     2.006     1.872 -78.17  3.50     13.79341   0  0.978
       665   2020.7635   4508.3979  19.9888   0.6043  20.6252   0.8094  19.6949   0.5314     1.610     1.506 -28.63  5.71     13.78163   0  0.637
       666   8252.3340   4517.7671  19.8252   0.5601  20.1052   0.6370  20.1256   0.6504     1.757     1.565 -81.49  4.43     13.77926   0  0.903
       667   2065.0767   4521.0913  20.3130   0.7017  22.3123   1.7606  19.9116   0.5881     1.362     0.655 -71.82  8.58     13.78363   0  0.472
       668    988.1260   4532.6323  20.2849   0.6923  20.5923   0.7972  20.2519   0.6903     1.504     1.396 -53.31  4.46     13.73758   0  0.661
       669   1067.1449   4556.7397  20.4622   0.7513  20.8844   0.9120  20.0644   0.6319     1.410     1.248  86.76  4.71     13.73482   0  0.584
       670   1447.2142   4589.7427  15.3246   0.0705  15.3183   0.0703  15.2921   0.0694     2.450     2.290 -73.97  3.50     13.75987   0  0.985
       671   6590.3760   4581.7368  19.3732   0.4552  20.3771   0.7220  18.8456   0.3578     2.293     1.524 -84.46  6.77     13.85382   0  0.012
       672   3058.5356   4593.6245  20.8594   0.9021  21.3685   1.1398  21.3115   1.1483     1.314     1.007 -85.80  4.66     13.80493   0  0.538
       673   8256.2129   4596.2881  18.9178   0.3687  18.9772   0.3789  19.1502   0.4122     1.943     1.802 -82.17  3.50     13.77197   0  0.969
       674   3594.3816   4599.0674  18.5099   0.3055  18.5596   0.3126  18.4636   0.2998     2.081     1.889 -73.68  3.50     13.79793   0  0.977
       675   3631.2488   4600.0464  20.1963   0.6649  20.8363   0.8920  20.1061   0.6445     1.472     1.440  55.04  5.69     13.79843   0  0.652
       676   7001.0781   4604.0532  20.1791   0.6598  20.9704   0.9489  21.3719   1.1829     1.728     1.421  40.78  5.82     13.82185   0  0.002
       677   6183.9971   4611.3643  19.0128   0.3852  19.0728   0.3959  19.1934   0.4206     1.892     1.765 -73.52  3.50     13.87491   0  0.971
       678   7670.0723   4619.0703  19.0687   0.3954  19.3554   0.4510  18.9968   0.3838     2.913     1.954  79.70  4.43     13.81122   0  0.010
       679   3941.7510   4621.5063  18.7117   0.3353  18.7659   0.3437  18.6560   0.3277     1.974     1.847 -82.61  3.50     13.82859   0  0.969
       680   6650.9976   4638.4829  16.4945   0.1208  16.5004   0.1211  16.4787   0.1199     2.234     2.113  87.93  3.50     13.86299   0  0.984
       681   7302.7944   4634.2422  20.7404   0.8543  21.9385   1.4820  21.0854   1.0283     1.178     0.819 -69.79  6.93     13.81396   0  0.458
       682   8515.9141   4712.7803  15.9966   0.0960  16.1605   0.1036  16.0777   0.0997    11.438     7.235  25.83  4.03     13.83568  24  0.000
       683    530.5635   4654.2578  19.2761   0.4351  19.8343   0.5623  19.0256   0.3890     2.316     1.813 -75.91  5.60     13.71974   0  0.058
       684   7966.1274   4661.8726  19.6940   0.5272  19.8435   0.5646  19.5548   0.4977     1.791     1.590 -78.11  3.69     13.77617   0  0.918
       685    282.2491   4665.5918  20.5980   0.7998  21.1209   1.0170  20.9575   0.9666     1.381     1.147 -80.00  4.95     13.72048   0  0.637
       686   6276.4028   4686.2236  20.2983   0.6965  20.5477   0.7810  20.2016   0.6741     1.555     1.363 -80.94  3.89     13.87238   0  0.722
       687   6604.0386   4702.6206  16.2855   0.1097  16.2875   0.1098  16.2553   0.1082     2.262     2.139 -87.28  3.50     13.86493   0  0.983
       688   7784.9077   4719.5869  19.4330   0.4677  19.8665   0.5707  19.2983   0.4416     1.999     1.851   4.45  5.13     13.78829   0  0.284
       689   1635.1150   4720.1660  19.2651   0.4327  19.3472   0.4493  19.2567   0.4331     1.930     1.762 -64.75  3.50     13.74386   0  0.955
       690    548.6786   4721.1523  20.0330   0.6169  21.5419   1.2347  19.7962   0.5571     1.495     1.219 -19.01  7.58     13.70175   0  0.007
       691   8509.7744   4764.0781  20.0808   0.6300  20.2525   0.6817  20.2712   0.6967     1.618     1.448 -63.61  3.51     13.83266   0  0.792
       692     60.2701   4795.5981  20.4540   0.7487  21.1607   1.0358  20.5934   0.8117     1.517     1.173  81.88  5.58     13.71113   0  0.666
       693   7639.5132   4807.0054  20.9247   0.9299  21.5255   1.2252  21.2180   1.0969     1.155     0.968 -89.63  5.45     13.78618   0  0.494
       694   7716.7651   4816.9531  20.4145   0.7354  21.5652   1.2480  20.1297   0.6516     1.389     1.055 -48.37  6.94     13.79617   0  0.194
       695   4123.4917   4821.0444  18.3815   0.2880  18.4249   0.2938  18.2408   0.2704     2.079     1.903 -75.14  3.50     13.81638   0  0.976
       696   7338.4775   4818.7300  19.0122   0.3851  19.0886   0.3988  18.9649   0.3782     1.938     1.779 -88.23  3.50     13.77469   0  0.968
       697   7757.2720   4824.5459  18.8709   0.3611  19.5428   0.4917  18.5591   0.3133     2.565     1.987 -89.01  6.17     13.79186   0  0.160
       698   2607.1331   4829.2026  20.8238   0.8877  21.4262   1.1705  20.8321   0.9099     1.237     1.073 -49.16  5.50     13.76651   0  0.540
       699   8420.1719   4843.8105  16.4192   0.1166  16.4222   0.1168  16.3822   0.1147     2.313     2.164 -76.44  3.50     13.74807   0  0.984
       700    561.6274   4835.7349  19.3708   0.4542  19.4651   0.4743  19.3545   0.4533     1.887     1.720 -76.46  3.50      13.6948   0  0.958
       701    827.5962   4842.6084  18.1282   0.2564  18.5786   0.3154  18.0994   0.2533     4.815     2.470  -7.19  5.23     13.68834   0  0.002
       702   8070.3760   4839.4214  19.6343   0.5132  20.1954   0.6641  19.5820   0.5041     2.413     1.686  28.45  5.13     13.76419   0  0.001
       703   7844.7480   4862.4658  17.6143   0.2022  17.6377   0.2044  17.5536   0.1969     2.195     2.021 -80.13  3.50     13.76837   0  0.983
       704   3885.8770   4874.1924  20.3505   0.7134  20.6015   0.8006  20.4962   0.7750     1.558     1.345 -78.66  3.90     13.77964   0  0.619
       705   5844.0381   4884.2769  16.8866   0.1447  16.8968   0.1453  16.8368   0.1415     2.270     2.108 -81.89  3.50     13.96775   0  0.984
       706   6916.8838   4887.2783  19.9919   0.6047  20.1400   0.6473  19.9445   0.5973     1.641     1.510 -77.82  3.50     13.81833   0  0.856
       707   4554.3979   4901.6382  17.0959   0.1593  17.1069   0.1601  17.0585   0.1567     2.268     2.102 -79.95  3.50     13.83963   0  0.992
       708   1243.4032   4906.3652  19.0378   0.3896  19.1095   0.4027  18.9584   0.3771     1.961     1.810 -87.17  3.50     13.71489   0  0.965
       709   1727.4247   4908.7466  19.1040   0.4021  19.6896   0.5261  18.9227   0.3709     3.128     2.044 -24.99  5.43     13.74914   0  0.000
       710   5907.7065   4917.9043  19.5130   0.4850  19.6270   0.5111  19.5348   0.4931     1.763     1.671  80.81  3.51     13.99804   0  0.945
       711   1020.5162   4932.2622  17.7188   0.2123  17.9383   0.2348  17.6087   0.2019     3.886     2.620  -0.19  4.53     13.70389   0  0.045
       712   2098.1917   4934.4551  19.6398   0.5147  20.6250   0.8094  19.2179   0.4254     2.889     1.156  80.72  6.55     13.74597   0  0.000
       713   1585.4404   4930.6230  20.7994   0.8778  21.5470   1.2374  20.9917   0.9827     1.175     1.039 -75.12  5.76     13.74653   0  0.516
       714   1710.3125   4933.9199  19.4661   0.4750  20.2178   0.6709  19.1850   0.4189     2.615     1.466 -50.97  5.98     13.75392   0  0.048
       715   5776.5688   4934.7725  20.2471   0.6804  20.5692   0.7887  20.3264   0.7151     1.567     1.363 -78.59  4.69     13.99026   0  0.640
       716   6413.2051   4937.7603  19.4082   0.4625  20.0753   0.6283  19.3650   0.4555     2.677     1.815  25.88  5.52     13.95735   0  0.000
       717   8369.4639   4970.3657  14.2607   0.0432  14.2474   0.0429  14.2295   0.0426     2.542     2.378 -76.01  3.50     13.74907   0  0.999
       718   7060.7212   4948.0542  20.1529   0.6518  20.8438   0.8951  20.0211   0.6192     1.650     1.388  78.87  5.85     13.81113   0  0.365
       719   1123.2700   4953.8779  20.6643   0.8245  21.0121   0.9672  20.9499   0.9630     1.341     1.215 -77.82  4.37     13.71648   0  0.530
       720   6513.3975   4981.3486  20.6901   0.8343  21.1252   1.0190  20.7290   0.8661     1.397     1.140 -76.45  4.24     13.95311   0  0.537
       721   4304.9614   5027.1040  15.3144   0.0701  15.2679   0.0686  16.5861   0.1260     2.694     1.748 -88.57  3.50     13.69083   0  0.983
       722   1914.1565   4995.7915  19.2649   0.4327  19.5409   0.4912  19.2662   0.4350     2.144     2.018 -86.41  4.49     13.74271   0  0.143
       723    944.6673   4995.9155  20.0235   0.6137  20.2106   0.6687  20.2126   0.6776     1.619     1.513 -83.95  4.06     13.69117   0  0.843
       724   2119.3511   5002.2842  19.5516   0.4937  19.6328   0.5124  19.4589   0.4759     1.770     1.679  88.07  3.53     13.74665   0  0.953
       725   1770.1060   5008.9819  17.7270   0.2130  17.7560   0.2159  17.7180   0.2124     2.151     2.009 -76.74  3.50     13.76339   0  0.982
       726    557.5020   5006.9956  20.1309   0.6452  20.8261   0.8879  20.1993   0.6734     1.721     1.359 -65.29  5.73     13.70002   0  0.180
       727   3895.0352   5013.2964  19.3197   0.4440  19.9228   0.5857  19.2992   0.4418     2.423     1.945 -29.87  5.42     13.79664   0  0.007
       728   4198.9595   5045.4668  19.3976   0.4599  19.5166   0.4857  18.9746   0.3799     1.790     1.671 -89.78  3.69     13.79069   0  0.955
       729   1953.3600   5071.2505  20.8060   0.8804  21.4390   1.1774  20.6214   0.8226     1.204     1.118  81.94  5.30       13.742   0  0.495
       730   1777.8701   5120.0801  14.0698   0.0395  14.0561   0.0393  14.0417   0.0390     2.580     2.416 -73.69  3.50     13.78608   0  0.999
       731   7069.5044   5107.7100  15.8670   0.0904  15.8646   0.0903  15.8332   0.0891     2.331     2.195 -85.00  3.50     13.83924   0  0.993
       732   7458.8110   5095.9810  19.4777   0.4772  19.5909   0.5026  19.3233   0.4468     1.835     1.665  82.37  3.67      13.7694   0  0.951
       733    196.0089   5100.4951  19.0376   0.3898  19.4585   0.4729  18.9700   0.3791     2.553     2.117  -6.04  5.15     13.73787   0  0.124
       734   1704.4335   5115.9097  20.4573   0.7500  21.6516   1.2986  20.1154   0.6473     1.260     1.140  32.07  6.85     13.77985   0  0.221
       735    327.7433   5122.2173  19.3240   0.4446  19.4226   0.4651  18.8884   0.3650     1.881     1.770  83.42  3.50      13.7216   0  0.960
       736   2060.6262   5137.1611  18.4727   0.3004  18.5864   0.3165  18.4217   0.2940     2.695     2.452 -87.97  3.75     13.75756   0  0.024
       737   1163.5809   5136.2627  20.1036   0.6372  20.8837   0.9117  20.2556   0.6915     1.610     1.347  43.45  6.11     13.72951   0  0.170
       738   7316.4229   5152.6353  17.1034   0.1598  17.1156   0.1607  17.0554   0.1564     2.255     2.088 -83.96  3.50     13.78325   0  0.985
       739    733.8085   5154.0039  18.5817   0.3160  19.1340   0.4073  18.4421   0.2968     3.353     2.083 -53.48  5.68     13.71146   0  0.070
       740    328.3277   5144.4775  19.8502   0.5671  20.8691   0.9057  19.6004   0.5084     2.169     1.272 -27.92  6.68     13.72289   0  0.001
       741   1666.4340   5150.8862  19.5803   0.5007  20.6300   0.8112  19.2566   0.4331     1.780     1.539 -87.32  6.91     13.77736   0  0.479
       742   1373.0273   5177.7173  15.6250   0.0809  15.6207   0.0807  15.5924   0.0797     2.420     2.262 -74.40  3.50     13.73439   0  0.985
       743   7061.6528   5163.0210  17.7787   0.2182  17.8074   0.2211  17.6786   0.2086     2.105     1.997 -82.52  3.50     13.85265   0  0.981
       744     59.9363   5168.5933  18.8498   0.3573  18.9091   0.3672  18.8905   0.3654     2.026     1.855 -78.90  3.50     13.73586   0  0.972
       745    318.5887   5174.5498  17.9063   0.2314  17.9349   0.2344  17.8691   0.2277     2.175     2.025 -84.19  3.50     13.72284   0  0.981
       746   6171.6523   5172.7954  18.5484   0.3112  19.0059   0.3839  18.4607   0.2994     3.466     2.485  -4.85  5.32     14.10745   0  0.010
       747   1166.0973   5171.7886  19.1228   0.4052  19.1930   0.4185  19.0357   0.3908     1.902     1.813 -78.73  3.51     13.73547   0  0.961
       748   3556.7214   5171.7783  19.9724   0.5996  20.4025   0.7305  20.0935   0.6406     1.744     1.584  72.51  4.99      13.8089   0  0.443
       749   7033.2422   5172.1812  19.7879   0.5508  20.2325   0.6755  19.1221   0.4069     2.038     1.585 -68.18  5.08     13.85794   0  0.090
       750   4542.3179   5206.2217  15.8480   0.0897  15.8463   0.0896  15.8178   0.0884     2.400     2.229 -80.60  3.50     13.81956   0  0.985
       751   4483.4644   5194.4819  20.3298   0.7069  20.6708   0.8266  20.1891   0.6702     1.466     1.422 -70.79  4.84       13.819   0  0.665
       752   7047.3726   5194.9497  20.3748   0.7215  20.6231   0.8086  19.9280   0.5927     1.471     1.362  69.91  3.98     13.85891   0  0.584
       753   4357.2368   5199.7085  19.3680   0.4540  21.5988   1.2675  18.8617   0.3605     1.525     1.149 -70.99  9.07     13.72719   0  0.003
       754    167.1826   5212.3989  20.1454   0.6492  20.3783   0.7224  20.0192   0.6186     1.569     1.525 -68.38  4.26     13.74393   0  0.841
       755   4460.6274   5215.7871  19.9532   0.5941  20.1506   0.6504  19.9026   0.5857     1.597     1.485 -81.47  3.84     13.81984   0  0.794
       756   3212.4624   5218.4648  21.1589   1.0357  21.9366   1.4806  20.8761   0.9294     0.933     0.920 -72.04  5.78     13.79085   0  0.427
       757   4364.1602   5239.1123  19.1220   0.4051  19.2034   0.4205  18.8296   0.3552     1.928     1.813 -67.57  3.60     13.73941   0  0.959
       758   7097.5723   5263.4233  19.3480   0.4499  21.1100   1.0120  19.2857   0.4390     1.963     1.250 -28.52  8.30     13.85222   0  0.007
       759    976.5906   5274.9087  17.3390   0.1782  17.3558   0.1795  17.2728   0.1730     2.278     2.094 -76.64  3.50     13.72162   0  0.987
       760   5922.3286   5268.1914  20.3311   0.7072  20.7205   0.8457  19.6843   0.5287     1.414     1.344 -37.49  4.72     14.15123   0  0.684
       761   1043.7313   5269.4614  20.1759   0.6588  21.0714   0.9941  20.1063   0.6445     1.514     1.373  67.16  6.36     13.72915   0  0.014
       762   7694.3071   5295.1167  20.5417   0.7797  21.4394   1.1776  20.5511   0.7955     1.293     1.111  72.09  6.40     13.75869   0  0.613
       763   5356.2539   5297.8301  18.6812   0.3308  19.0860   0.3984  18.5534   0.3125     2.405     2.259 -69.75  5.31     13.95795   0  0.170
       764   7563.4727   5295.7119  19.7563   0.5430  20.5603   0.7856  19.5815   0.5039     2.128     1.668  89.62  5.82      13.7768   0  0.001
       765     58.6230   5300.8198  18.2216   0.2675  18.2586   0.2721  18.1169   0.2554     2.101     1.953  88.45  3.50     13.72959   0  0.979
       766   6454.4448   5300.8628  20.4707   0.7542  20.8392   0.8932  20.5962   0.8128     1.363     1.352  77.70  4.34     14.16101   0  0.524
       767     11.4806   5310.0171  19.9984   0.6066  20.6193   0.8073  99.0000  99.0000     2.208     1.483 -80.23  3.50     13.73329  16  0.001
       768   4622.5679   5340.9072  18.0584   0.2482  18.0929   0.2521  17.9605   0.2376     2.087     1.989 -83.14  3.50     13.81286   3  0.980
       769   4612.8135   5346.6538  17.5689   0.1981  17.5931   0.2003  17.4939   0.1915     2.186     2.064 -70.35  3.50     13.81322   3  0.982
       770    120.5715   5341.8330  19.5016   0.4825  19.6223   0.5100  19.4356   0.4708     1.847     1.712  82.97  3.60     13.71942   0  0.949
       771   6180.8418   5358.5376  17.0937   0.1591  17.1076   0.1602  17.0603   0.1568     2.264     2.080 -81.46  3.50     14.37849   0  0.983
       772   8025.8647   5349.0957  19.5358   0.4901  19.6446   0.5152  19.4128   0.4658     1.778     1.604 -89.78  3.56     13.75536   0  0.945
       773   6244.7891   5350.2339  20.9672   0.9482  21.5526   1.2406  20.4987   0.7760     1.125     1.086  47.94  5.09     14.36584   0  0.533
       774   2993.6592   5351.4561  19.5648   0.4967  19.6827   0.5243  19.6180   0.5126     1.825     1.648 -63.44  3.58     13.82265   0  0.944
       775   4934.5742   5369.7046  17.1635   0.1643  17.1778   0.1654  17.1176   0.1610     2.249     2.076 -85.56  3.50     13.82001   0  0.985
       776   7790.5122   5363.4214  19.8327   0.5620  19.9991   0.6066  19.7508   0.5454     1.652     1.586 -75.72  4.04     13.75439   0  0.895
       777   3406.0198   5370.8779  19.3049   0.4407  19.3809   0.4563  19.3025   0.4425     1.882     1.740 -56.71  3.50     13.81028   0  0.959
       778   6186.4814   5721.1538  11.6501   0.0130  11.6890   0.0132  13.3540   0.0284   190.413    19.124  -0.23  3.50     17.96928   0  0.101
       779   5726.0562   5392.4517  20.0212   0.6130  20.2207   0.6718  19.9186   0.5901     1.676     1.513  78.51  3.76     14.13029   0  0.798
       780   1192.4185   5406.7944  16.9122   0.1464  16.9243   0.1472  16.8657   0.1433     2.314     2.138 -72.00  3.50     13.74721   0  0.984
       781   2875.1714   5398.2354  20.7121   0.8429  21.2198   1.0643  21.1246   1.0481     1.240     1.181  23.08  4.81     13.83142   0  0.685
       782   6536.7817   5414.8877  16.0943   0.1004  16.0946   0.1004  16.0561   0.0987     2.334     2.179 -86.68  3.50     14.20642   0  0.984
       783   2934.9175   5441.5566  14.0764   0.0397  14.0621   0.0394  14.0426   0.0390     3.226     2.988 -77.31  3.50     13.83676   0  1.000
       784   5830.3755   5401.4209  20.9702   0.9495  21.6209   1.2802  21.5581   1.2971     1.094     0.974 -49.22  5.52      14.1879   0  0.544
       785   6728.9976   5422.9214  20.7010   0.8389  21.2509   1.0797  20.0534   0.6287     1.211     1.193  87.23  5.47     14.06832   0  0.665
       786   7112.6255   5439.0942  19.1150   0.4037  19.1898   0.4178  19.0489   0.3933     1.891     1.735  84.99  3.50     13.85481   0  0.964
       787   6854.8960   5450.6030  18.6311   0.3234  19.6912   0.5265  18.5734   0.3154     3.269     2.223  56.15  6.86     14.00097   0  0.002
       788   6710.4580   5445.0464  19.8658   0.5710  20.6003   0.8001  19.6298   0.5154     1.715     1.495 -84.98  6.05     14.08143   0  0.429
       789    637.5565   5480.9873  20.9168   0.9266  21.6335   1.2878  20.7512   0.8753     1.163     0.969 -89.26  5.82     13.75607   0  0.624
       790   3924.4966   5483.5210  21.0654   0.9923  21.9539   1.4925  20.8822   0.9321     0.936     0.924 -80.37  6.23      13.7945   0  0.465
       791    610.2545   5560.1675  13.7605   0.0343  13.7425   0.0340  13.7254   0.0337     3.886     3.436  79.25  3.50     13.78559   0  0.996
       792    291.5154   5496.5029  20.5192   0.7716  21.4270   1.1710  20.5831   0.8077     1.408     1.007 -89.31  6.48     13.73828   0  0.535
       793   7764.0542   5514.4233  16.5271   0.1226  16.5334   0.1229  16.4873   0.1204     2.276     2.144 -82.98  3.50       13.778   0  0.983
       794   3414.6467   5505.5571  20.7465   0.8565  21.3788   1.1452  20.4283   0.7504     1.137     1.127  75.69  5.39     13.81327   0  0.517
       795   2013.2399   5518.1240  20.9450   0.9386  21.5071   1.2150  20.8651   0.9245     1.195     1.066 -64.67  5.18     13.76767   0  0.608
       796   1439.5305   5534.5239  17.1073   0.1601  17.1203   0.1611  17.0759   0.1579     2.286     2.099 -75.89  3.50     13.76751   0  0.985
       797   7443.3306   5536.7275  17.0185   0.1537  17.0305   0.1546  16.9462   0.1488     2.290     2.094 -81.70  3.50     13.80241   0  0.983
       798   7968.0933   5527.2886  20.9240   0.9295  21.4799   1.1998  20.4980   0.7757     1.190     1.067 -29.26  5.02     13.75192   0  0.559
       799   6294.9868   5528.2515  20.1450   0.6489  20.3351   0.7081  19.8694   0.5766     1.600     1.509  86.32  3.54     14.93259   0  0.737
       800    192.7390   5535.2622  19.4236   0.4659  20.8066   0.8800  19.2415   0.4301     3.030     1.064  67.01  7.42     13.73729   0  0.001
       801   4701.5654   5532.0435  19.2456   0.4290  19.7058   0.5300  19.0411   0.3918     2.235     1.923  34.71  5.38     13.84413   0  0.124
       802   1386.1393   5539.6792  19.8753   0.5732  20.1036   0.6365  19.9064   0.5867     1.742     1.578 -76.84  4.11     13.76795   0  0.918
       803   6818.3848   5567.4097  19.5421   0.4919  20.0109   0.6100  19.3329   0.4488     2.289     1.781 -76.21  5.10     14.06094   0  0.036
       804   1767.8385   5578.7261  20.3413   0.7105  20.6522   0.8195  20.3244   0.7144     1.438     1.367  85.81  4.32     13.79273   0  0.610
       805    435.2387   5589.7266  18.4210   0.2933  18.4737   0.3005  18.3520   0.2847     2.050     1.953 -84.92  3.53     13.73334   0  0.977
       806   7018.1802   5600.1021  20.4864   0.7598  20.9787   0.9525  20.1601   0.6611     1.340     1.233  89.43  5.08     13.91027   0  0.576
       807   7662.7188   5626.6763  19.4193   0.4647  19.7650   0.5446  19.1524   0.4126     1.903     1.860  24.65  5.01     13.79155   0  0.877
       808   6690.2769   5626.9067  20.2615   0.6848  20.5198   0.7710  22.0318   1.6487     1.534     1.380  74.63  3.98     14.22595   0  0.764
       809   1149.7197   5628.7354  20.0502   0.6213  20.2720   0.6879  19.9333   0.5942     1.612     1.522  86.91  4.27     13.74916   0  0.856
       810   3227.9741   5635.9487  20.7380   0.8533  21.3362   1.1230  20.7263   0.8649     1.216     1.199 -76.70  5.51       13.806   0  0.677
       811   8535.1348   5663.9575  17.0989   0.1595  17.1019   0.1597  17.0814   0.1583     2.229     1.516  89.51  3.50      13.7272  24  0.983
       812   1390.0389   5668.6802  19.5205   0.4871  21.0545   0.9864  19.3475   0.4518     1.677     1.294  42.14  8.16     13.78034   0  0.004
       813   2528.4146   5674.2026  20.5658   0.7880  20.9263   0.9298  20.6886   0.8495     1.386     1.307  65.67  4.57     13.80461   0  0.640
       814   2446.4343   5691.2847  17.1471   0.1631  17.1619   0.1642  17.1224   0.1614     2.241     2.090 -82.76  3.50     13.80774   0  0.983
       815   8270.1865   5682.8452  19.5509   0.4939  20.3351   0.7081  19.5009   0.4853     1.891     1.654 -69.94  6.39     13.73079   0  0.132
       816   7270.7134   5687.1904  19.0254   0.3874  19.1072   0.4022  18.9944   0.3834     1.891     1.771  76.87  3.50     13.84118   0  0.962
       817   1605.7301   5687.5239  20.8819   0.9119  21.7451   1.3556  20.9315   0.9546     1.025     0.990  89.64  6.44     13.78022   0  0.511
       818    415.2257   5694.7563  19.1117   0.4034  19.7023   0.5291  18.8833   0.3641     2.282     2.087 -51.59  5.76     13.72613   0  0.052
       819     49.4343   5702.2417  21.3226   1.1162  21.5976   1.2666  21.0570   1.0142     0.959     0.940  22.36  3.50     13.72399   0  0.655
       820   3571.6274   5710.0928  20.5310   0.7754  20.9301   0.9314  20.3812   0.7339     1.372     1.269  42.38  4.43     13.81492   0  0.526
       821    810.1067   5716.8438  19.9794   0.6013  20.2224   0.6723  19.8214   0.5638     1.639     1.533 -67.10  4.21      13.7292   0  0.882
       822   4961.3955   5722.8359  18.5005   0.3042  18.5596   0.3126  18.3970   0.2907     2.108     1.891 -78.37  3.50     13.85828   0  0.973
       823   2698.5967   5742.6685  19.3178   0.4438  20.4944   0.7621  18.7216   0.3378     2.241     1.640 -24.33  7.13     13.82093   0  0.002
       824   2255.5254   6649.1631  10.4684   0.0075  10.5756   0.0079  15.5074   0.0767  1283.704    15.374   0.14  3.50     5.173235  17  0.715
       825   2377.1777   5751.6948  20.6078   0.8034  21.0241   0.9726  20.5030   0.7775     1.405     1.166 -71.19  4.73     13.79824   0  0.662
       826   5166.9941   5753.1621  20.6082   0.8036  21.0481   0.9834  20.5684   0.8021     1.259     1.250 -55.45  4.95     13.88653   0  0.550
       827    593.3387   5754.0591  19.7785   0.5485  20.5210   0.7715  19.6582   0.5223     1.751     1.541 -76.83  6.14     13.74472   0  0.270
       828   2714.7590   5760.8271  18.4664   0.2997  19.2490   0.4294  18.1405   0.2582     2.866     2.437 -14.45  6.44     13.81865   0  0.049
       829   4322.1343   5761.7314  20.5405   0.7790  21.0447   0.9819  99.0000  99.0000     1.384     1.177 -70.43  5.24     13.69561   0  0.593
       830    698.9330   5763.0405  20.7212   0.8465  21.1682   1.0393  20.5302   0.7877     1.207     1.197  66.83  4.94     13.73891   0  0.651
       831   3094.8359   5769.7837  20.3802   0.7234  20.7379   0.8525  20.4467   0.7570     1.517     1.267 -79.08  4.60     13.81094   0  0.640
       832   7443.8330   5801.1201  17.3360   0.1779  17.3525   0.1793  17.2882   0.1742     2.227     2.063 -82.61  3.50      13.8238   0  0.982
       833   2169.1113   5797.0186  20.0538   0.6224  20.2915   0.6940  19.7973   0.5575     1.688     1.474 -54.94  4.42     13.79037   0  0.809
       834   7329.0449   5809.8984  19.6628   0.5197  19.8374   0.5631  19.6444   0.5190     1.726     1.588  80.82  4.03     13.83847   0  0.915
       835   7111.2622   5811.9307  18.4658   0.2994  18.5110   0.3057  18.4286   0.2950     2.049     1.888  81.06  3.50     13.89932   0  0.974
       836    987.7330   5810.7612  20.9399   0.9363  21.5069   1.2148  20.7130   0.8595     1.123     1.089 -48.46  5.04     13.74294   0  0.535
       837   6233.9341   5811.2632  19.6067   0.5065  19.9270   0.5868  18.7573   0.3435     1.771     1.649  87.41  4.83     17.33667   0  0.897
       838   1857.7908   5831.2266  20.3872   0.7257  20.6827   0.8311  20.1943   0.6718     1.494     1.350 -85.52  4.45     13.79855   0  0.638
       839   3688.9570   5844.2808  18.2614   0.2725  18.2948   0.2767  18.2282   0.2689     2.064     1.917 -84.47  3.50      13.8252   0  0.977
       840   2915.9297   5886.3594  14.9911   0.0604  14.9822   0.0602  14.9595   0.0596     2.473     2.294 -76.56  3.50     13.81788   0  0.988
       841   7553.9917   5864.4741  20.5914   0.7974  20.9046   0.9205  20.5789   0.8061     1.418     1.221 -88.95  4.76     13.81223   0  0.657
       842   6116.6362   5864.9312  19.2015   0.4202  19.3529   0.4504  18.7306   0.3392     1.880     1.726  73.54  4.10     15.32657   0  0.958
       843   4057.1201   5943.0044  13.7365   0.0339  13.7166   0.0336  13.7016   0.0334     3.746     3.338  75.95  3.50     13.85272   0  1.000
       844   1142.9891   5887.6533  18.4871   0.3023  18.5365   0.3093  18.4613   0.2995     2.076     1.911 -70.38  3.50     13.75608   0  0.977
       845   3393.3818   5912.2026  15.0977   0.0635  15.0889   0.0632  15.0655   0.0625     2.458     2.283 -76.91  3.50     13.82157   0  0.992
       846   1433.2850   5889.5200  20.7173   0.8452  21.2202   1.0645  20.5216   0.7845     1.334     1.144 -89.70  5.20     13.77405   0  0.535
       847    326.4388   5892.8643  19.5953   0.5042  20.6960   0.8363  19.5612   0.4992     2.276     1.398 -83.12  6.73     13.71668   0  0.001
       848   7970.5723   5897.0122  19.9753   0.6002  20.1704   0.6564  19.9911   0.6105     1.619     1.482  87.33  3.95     13.78266   0  0.777
       849   8460.6797   5949.4639  18.1454   0.2585  18.6357   0.3238  18.1342   0.2574     5.506     3.093  81.63  4.86      13.7001   0  0.000
       850   3294.0366   5919.6743  19.8753   0.5735  20.6134   0.8050  19.4767   0.4799     1.710     1.508 -14.28  6.07      13.8154   0  0.565
       851   2528.6633   5961.8584  14.7293   0.0536  14.7186   0.0533  14.6982   0.0528     2.504     2.325 -74.18  3.50     13.78752   0  0.995
       852   8144.2368   5936.1548  19.5731   0.4991  21.2272   1.0681  19.3187   0.4458     1.830     1.240 -52.27  8.01     13.73516   0  0.150
       853   3622.2993   6025.8125  15.7209   0.0846  16.4016   0.1157  16.1673   0.1039     9.463     7.496  -4.11  6.27     13.90627   0  0.015
       854    569.3383   5959.5415  19.9060   0.5813  20.0969   0.6345  19.7766   0.5521     1.744     1.532 -77.13  3.75     13.70756   0  0.904
       855   1035.9586   5981.6455  15.4128   0.0734  15.4073   0.0732  15.3812   0.0723     2.446     2.288 -76.98  3.50     13.77649   0  0.987
       856    412.0928   5971.2271  19.9634   0.5969  20.1637   0.6544  19.9211   0.5908     1.712     1.572 -62.09  3.84     13.71182   0  0.911
       857   6573.6260   5982.0938  17.0438   0.1555  17.0579   0.1565  17.0183   0.1538     2.253     2.082 -84.78  3.50     14.25031   0  0.989
       858   3049.2759   5976.8604  19.3961   0.4596  19.5177   0.4860  19.4211   0.4676     1.899     1.667 -72.14  3.79     13.80359   0  0.952
       859   3008.0078   5980.4907  19.8082   0.5562  21.5422   1.2349  19.7549   0.5465     1.900     0.950 -13.41  8.11     13.80687   0  0.065
       860   8035.5146   5984.2329  19.7378   0.5384  20.7737   0.8667  19.6223   0.5136     1.910     1.358 -72.09  6.89      13.7641   0  0.088
       861   2882.4570   5987.0630  19.3270   0.4452  19.4104   0.4625  19.2365   0.4291     1.909     1.717 -81.73  3.61     13.80518   0  0.960
       862   7413.4238   5996.8540  19.2008   0.4204  19.8533   0.5673  19.1714   0.4163     2.622     2.079   1.14  5.49       13.835   0  0.000
       863    792.5114   5997.7222  19.8382   0.5634  19.9656   0.5973  19.6946   0.5313     1.779     1.627 -60.31  3.68     13.73779   0  0.907
       864   3272.3081   6007.8062  18.3966   0.2901  18.6723   0.3293  18.2547   0.2722     2.864     2.547  -8.54  4.66     13.80319   0  0.059
       865   7799.2339   6004.8770  19.8998   0.5797  20.0926   0.6333  19.7213   0.5380     1.663     1.577 -75.81  3.88     13.77909   0  0.880
       866   5718.7188   6018.5591  20.9612   0.9458  21.8222   1.4047  21.5183   1.2717     1.021     0.988 -88.15  6.21     14.13324   0  0.502
       867   3883.0115   6029.2090  19.2830   0.4367  20.0721   0.6274  19.2351   0.4288     2.536     1.861 -55.01  6.17      13.8167   0  0.000
       868    133.1952   6037.1641  20.2656   0.6867  21.5782   1.2555  20.0829   0.6374     1.286     1.209  73.64  7.21       13.736   0  0.482
       869   6565.1421   6040.0181  21.1087   1.0120  21.8467   1.4206  20.9221   0.9502     1.016     0.869 -88.37  5.56     14.21625   0  0.512
       870    117.9948   6084.1548  18.2919   0.2763  18.3302   0.2812  18.2406   0.2704     2.070     1.994 -89.74  3.50     13.74401   0  0.978
       871   2707.5867   6090.1069  20.3077   0.6995  20.5568   0.7843  19.9003   0.5850     1.550     1.347  71.62  4.03     13.78279   0  0.678
       872    288.2827   6092.2271  19.8752   0.5735  20.5262   0.7733  19.7137   0.5360     1.789     1.624  85.96  5.70     13.73507   0  0.317
       873   1638.4683   6108.7505  19.0897   0.3991  19.1609   0.4123  19.0279   0.3894     1.929     1.771 -83.69  3.53     13.78707   0  0.965
       874   2700.9736   6128.6392  16.6497   0.1297  16.6575   0.1302  16.6040   0.1271     2.344     2.150 -74.32  3.50     13.78036   0  0.983
       875    133.8959   6117.8379  20.1383   0.6476  21.2307   1.0698  20.1934   0.6715     1.719     1.251 -79.65  6.71     13.74981   0  0.007
       876    529.7734   6119.2935  19.6538   0.5175  19.7850   0.5496  19.4766   0.4799     1.765     1.659 -68.34  3.95     13.72138   0  0.949
       877   8453.8633   6143.4746  18.3074   0.2783  18.3494   0.2837  18.2508   0.2717     2.040     1.920 -82.15  3.50     13.73638   0  0.978
       878   4887.9766   6147.3506  18.1365   0.2572  18.1692   0.2611  18.0820   0.2513     2.118     1.963 -89.01  3.50     13.81818   0  0.980
       879   8346.0322   6164.5161  17.4285   0.1857  17.7447   0.2148  17.3349   0.1780     4.175     3.436 -24.29  4.97     13.74638   0  0.028
       880   5358.0000   6175.6772  17.4704   0.1894  17.9249   0.2334  17.3619   0.1802     3.658     3.576  10.03  5.57     13.94353   0  0.049
       881   8008.6284   6187.8730  17.9214   0.2332  18.6605   0.3275  17.8960   0.2306     4.803     3.121 -36.69  5.90     13.76196   2  0.001
       882   8014.9795   6174.8770  19.6646   0.5206  20.7043   0.8395  18.6776   0.3310     1.855     1.478 -78.33  6.74     13.76121   3  0.627
       883   8445.0107   6184.5811  18.8384   0.3559  19.7111   0.5313  18.8870   0.3648     3.079     2.784 -43.93  5.96     13.74069   0  0.000
       884    926.7556   6193.4849  18.3504   0.2839  18.3844   0.2883  18.3096   0.2792     2.141     1.956 -74.48  3.50     13.74462   0  0.979
       885    224.3009   6204.9043  17.6186   0.2028  18.2808   0.2749  17.5154   0.1934     4.292     3.030 -12.12  6.22     13.76387   0  0.010
       886   7265.7993   6206.2754  19.3280   0.4458  21.0462   0.9827  19.2758   0.4370     1.958     1.379  45.04  8.26     13.85584   0  0.001
       887   4061.6143   6206.3950  18.8657   0.3599  18.9361   0.3718  18.7540   0.3429     1.983     1.805 -86.04  3.50     13.81439   0  0.971
       888   4837.0562   6213.6982  20.5143   0.7695  20.7916   0.8738  20.4291   0.7507     1.449     1.226  76.43  4.46     13.80847   0  0.549
       889   1937.9402   6219.2100  20.0623   0.6247  20.2328   0.6755  20.0715   0.6340     1.601     1.536 -70.67  3.51     13.78643   0  0.899
       890   3451.0146   6221.3408  20.4634   0.7522  21.8158   1.4007  19.7876   0.5549     1.154     1.105  -2.39  7.35      13.7984   0  0.476
       891   3381.2471   6226.5908  20.8646   0.9045  21.4264   1.1706  20.5802   0.8066     1.206     1.122 -13.29  5.10     13.80098   0  0.620
       892    159.5578   6229.8867  19.4561   0.4727  19.9548   0.5944  19.3747   0.4576     2.000     1.793  69.94  5.48     13.76863   0  0.531
       893   5163.9155   6243.6221  20.2139   0.6704  21.0501   0.9844  20.0135   0.6170     1.506     1.260 -78.05  6.36     13.86109   0  0.491
       894   2719.1274   6243.5488  20.3457   0.7124  21.4159   1.1650  20.3085   0.7090     1.450     1.163 -58.65  6.60     13.77791   0  0.093
       895   1105.4990   6246.9917  20.7889   0.8737  21.8185   1.4024  20.6313   0.8265     1.183     0.980 -89.21  6.50     13.75366   0  0.231
       896   8367.3057   6251.8403  20.1243   0.6432  20.7529   0.8584  20.1792   0.6670     1.892     1.304  -5.30  5.37     13.74641   0  0.018
       897   6210.3105   6256.0220  19.8797   0.5743  20.1272   0.6435  19.7654   0.5492     1.646     1.555 -87.64  4.22     14.18947   0  0.896
       898   1209.6431   6256.6279  21.0237   0.9734  21.9477   1.4883  20.6714   0.8425     1.040     0.900  46.40  6.29     13.75634   0  0.593
       899   4205.4116   6510.7612  12.3556   0.0180  11.1695   0.0104  14.6487   0.0516  2315.540    13.938  -0.34  3.50   0.02371297  19  0.000
       900   4747.9834   6523.1143  15.8261   0.0904  12.5034   0.0192  16.0240   0.0973   339.036    15.368   1.08  3.50     8.217265   1  0.000
       901    139.8527   6269.1265  19.9559   0.5954  20.8792   0.9099  19.8428   0.5695     1.695     1.531 -40.63  6.33     13.76483   0  0.005
       902   4065.1987   6293.9194  18.4431   0.2964  18.7346   0.3388  18.3955   0.2905     4.197     2.061  81.11  4.46     13.81479   0  0.010
       903    777.5242   6283.0293  17.1425   0.1627  17.1562   0.1638  17.1033   0.1599     2.220     2.112 -83.44  3.50     13.74446   0  0.985
       904   7527.8242   6291.0391  20.1426   0.6488  21.5319   1.2290  20.0320   0.6224     1.701     0.980  71.05  7.36     13.82184   0  0.027
       905   7583.4575   6302.0088  20.1250   0.6430  20.2972   0.6959  19.9710   0.6048     1.625     1.440  87.96  3.62     13.80148   0  0.757
       906   2433.5032   6338.3682  16.3671   0.1139  16.3704   0.1140  16.3303   0.1120     2.324     2.157 -80.64  3.50     13.76623   0  0.984
       907    996.8788   6348.4995  19.9828   0.6022  20.1422   0.6479  19.7269   0.5394     1.719     1.525 -79.80  3.50     13.75384   0  0.874
       908   3344.2922   6348.7451  20.0828   0.6311  21.1257   1.0192  19.9657   0.6033     1.492     1.357  46.92  6.65     13.79982   0  0.064
       909   3029.0308   6349.5176  20.0985   0.6357  20.8660   0.9043  20.0479   0.6270     1.738     1.375 -30.10  5.81     13.79393   0  0.012
       910    144.2093   6370.9541  18.0062   0.2424  18.3095   0.2786  17.9381   0.2351     4.042     3.150  67.05  4.74     13.76637   0  0.007
       911   3463.8508   6356.8291  18.9387   0.3723  18.9994   0.3828  18.8732   0.3624     1.937     1.798 -80.98  3.50      13.7925   0  0.966
       912   4734.9375   6362.3936  20.1877   0.6623  21.9555   1.4937  19.9051   0.5864     1.386     0.814 -37.84  8.17     13.78943   0  0.453
       913   6889.3057   6382.7822  17.0571   0.1565  17.0685   0.1573  17.0270   0.1544     2.245     2.082 -86.13  3.50     13.90613   0  0.983
       914     83.4913   6386.2959  20.3387   0.7098  20.8240   0.8870  19.9903   0.6103     1.438     1.355  56.46  5.07     13.74952   0  0.619
       915   7470.3701   6388.2061  20.4677   0.7531  20.7460   0.8557  20.0710   0.6339     1.408     1.356 -25.83  4.21     13.82791   0  0.641
       916   7392.5845   6389.4072  20.3427   0.7109  20.6172   0.8064  20.4568   0.7607     1.467     1.377  64.00  4.11      13.8454   0  0.658
       917    187.0066   6389.6440  19.9585   0.5960  21.8234   1.4056  19.4510   0.4742     1.541     0.953 -58.08  8.09     13.76408   0  0.058
       918   2504.0818   6401.0234  20.6786   0.8302  21.2618   1.0851  19.8267   0.5652     1.206     1.198  64.09  5.40     13.77983   0  0.481
       919   4807.1108   6648.4243  12.3726   0.0181  11.9347   0.0148  15.4025   0.0730   329.420    16.813  -1.02  3.50     5.017443   1  0.000
       920   4856.3389   6433.3955  20.9661   0.9477  21.6533   1.2995  99.0000  99.0000     1.105     0.970 -47.77  5.36     13.80558   0  0.676
       921   8245.1768   6488.5054  17.1696   0.1648  17.4509   0.1876  17.0395   0.1553     4.097     3.416  62.56  5.01     13.76609   0  0.039
       922   3800.3821   6530.4551  15.3893   0.0726  15.1973   0.0665  15.6598   0.0822    21.251     7.739   1.27  3.50     6.698834   3  0.911
       923   7120.9419   6471.9824  18.9074   0.3669  18.9726   0.3781  18.9299   0.3721     1.949     1.819 -83.60  3.50     13.85054   0  0.971
       924   2844.4839   6484.1616  18.7040   0.3341  18.6962   0.3329  99.0000  99.0000     1.885     1.724 -80.22  3.50     13.77937   0  0.973
       925   4924.0034   6492.0679  19.9110   0.5826  19.9725   0.5992  99.0000  99.0000     1.694     1.521 -75.64  3.50     13.80706   0  0.922
       926   8403.9600   6495.5186  18.8732   0.3614  19.4282   0.4664  99.0000  99.0000     2.597     2.302 -23.16  5.65     13.71708   0  0.087
       927   5699.2769   6534.2671  13.9830   0.0380  13.9668   0.0377  14.1340   0.0407     2.854     2.811 -77.11  3.50     13.50985   0  1.000
       928   2079.1699   6591.9473  12.4474   0.0188  12.1818   0.0166  16.7421   0.1354  1194.120     8.113   0.00  3.50   0.01598925  16  0.000
       929   6864.2969   6530.5288  20.5195   0.7711  20.1496   0.6501  99.0000  99.0000     1.599     1.052  -4.52  3.50     13.72951   0  0.811
       930   6054.8418   6624.7744  15.7361   0.0852  15.7101   0.0841  17.7609   0.2166     2.281     2.215 -68.78  3.50     13.44858   0  0.992
       931   8162.5093   6620.4380  19.3751   0.4554  19.8434   0.5647  99.0000  99.0000     2.274     1.820   1.21  5.20      13.7687   0  0.111
       932   7223.1328   6628.4009  19.9891   0.6044  20.7464   0.8558  99.0000  99.0000     1.576     1.491   8.40  6.23     13.66268   0  0.117
       933   8262.1650   6645.7310  15.9530   0.0941  15.9515   0.0940  15.9180   0.0926     2.340     2.211 -84.96  3.50     13.74402   0  0.984
       934   8175.0127   6646.5381  18.9451   0.3736  19.4427   0.4695  18.7439   0.3414     2.766     1.912  80.41  5.42     13.76918   0  0.110
       935   7516.7573   6678.3794  20.4239   0.7381  20.8119   0.8821  19.8875   0.5815     1.448     1.338  69.55  4.57     13.81637   0  0.657
       936   5458.5205   6700.9624  15.9065   0.0921  15.9057   0.0921  15.8665   0.0904     2.416     2.197 -82.81  3.50     13.85594   0  0.988
       937   7998.5063   6694.4854  19.9633   0.5974  20.9649   0.9465  19.6899   0.5301     1.512     1.494   8.31  6.82     13.81158   0  0.025
       938   4749.4844   6728.6348  14.0350   0.0389  14.0253   0.0387  14.0336   0.0389     2.733     2.510 -80.72  3.50     13.85678   0  1.000
       939   5449.1401   6722.5220  18.4218   0.2934  18.4666   0.2995  18.3631   0.2862     2.019     1.881  89.35  3.50     13.85639   0  0.977
       940   5038.2144   6749.0737  14.8587   0.0569  14.8498   0.0566  14.8467   0.0565     2.485     2.289 -84.23  3.50     13.84945   0  0.994
       941     45.7518   6730.1763  20.1347   0.6458  20.2415   0.6782  99.0000  99.0000     1.604     1.412 -71.38  3.50     13.51609   0  0.821
       942    969.7750   6735.1201  17.7611   0.2164  17.7741   0.2177  18.9442   0.3746     2.136     1.986 -72.13  3.50     13.77435   0  0.982
       943   2435.5959   6767.5854  20.2208   0.6726  21.8731   1.4381  19.1174   0.4060     1.339     0.960 -69.45  7.80     13.78513   0  0.151
       944   2051.8530   6787.8628  19.3628   0.4527  19.6188   0.5091  18.5669   0.3145     1.868     1.709 -83.71  4.86     13.77088   0  0.936
       945   5496.2876   6788.6025  19.8609   0.5694  20.0171   0.6116  19.6731   0.5260     1.798     1.546 -85.10  4.06     13.84784   0  0.888
       946   7260.9863   6805.3296  16.8964   0.1453  16.9073   0.1460  16.8675   0.1435     2.253     2.111 -88.91  3.50     13.84678   0  0.983
       947   5455.0352   6797.1162  20.2638   0.6860  21.2737   1.0911  20.0166   0.6179     1.524     1.152  83.95  6.61     13.84487   0  0.105
       948   4059.5945   6807.4380  20.0908   0.6334  20.9338   0.9330  19.1962   0.4211     1.517     1.430  62.60  6.30     13.77601   0  0.507
       949   4741.0547   6818.9204  20.1835   0.6611  21.1023   1.0083  19.7248   0.5388     1.632     1.208  74.74  6.42     13.81148   0  0.656
       950    327.7453   6840.1855  15.5912   0.0797  15.5885   0.0796  15.5671   0.0788     2.432     2.283 -81.48  3.50     13.75758   0  0.985
       951   8450.5137   6894.2666  13.9261   0.0370  13.9104   0.0367  13.8936   0.0365     3.084     2.893 -76.59  3.50     13.72762   0  1.000
       952   8050.5288   6871.5459  17.4800   0.1901  17.5001   0.1919  17.4581   0.1884     2.177     2.062 -82.83  3.50      13.7855   0  0.987
       953   5258.7100   6871.1318  20.8813   0.9112  21.3481   1.1291  21.4642   1.2380     1.200     1.051  66.25  4.65     13.83272   0  0.509
       954   3710.0564   6878.2461  20.0380   0.6179  20.4114   0.7335  20.0541   0.6289     1.654     1.562  58.13  4.73     13.77892   0  0.757
       955   3502.4573   6884.9751  17.8705   0.2276  17.9009   0.2308  17.8058   0.2212     2.181     1.996 -77.49  3.50     13.77488   0  0.981
       956   6993.1157   6884.9707  20.5061   0.7666  20.9628   0.9455  20.3125   0.7104     1.326     1.236  51.37  4.77     13.83688   0  0.588
       957   7268.3760   6911.9678  19.2245   0.4250  19.9367   0.5895  19.1464   0.4115     3.046     1.864 -27.42  5.67     13.85041   0  0.000
       958   7903.0322   6917.9009  20.0699   0.6274  21.0198   0.9707  19.3830   0.4594     1.692     1.169  75.66  6.67     13.81369   0  0.147
       959   1442.4323   6929.9844  20.1706   0.6568  20.4818   0.7576  19.9342   0.5944     1.641     1.424 -82.97  4.46     13.77157   0  0.705
       960   5593.9019   6933.0991  20.2436   0.6791  20.4663   0.7523  20.0083   0.6154     1.563     1.418  89.02  3.84     13.82402   0  0.784
       961   2694.1033   6944.4766  20.6759   0.8291  21.0956   1.0051  20.5558   0.7973     1.339     1.234 -86.11  4.78     13.76099   0  0.664
       962   2448.2219   6954.8374  17.6260   0.2033  17.6486   0.2055  17.5968   0.2008     2.226     2.042 -76.72  3.50     13.78053   0  0.982
       963   8398.3906   6956.0396  20.6267   0.8106  21.1132   1.0133  20.6540   0.8356     1.285     1.229 -50.23  5.18     13.73873   0  0.527
       964   8210.3545   6960.4556  19.4544   0.4723  19.7625   0.5440  19.2967   0.4413     2.195     1.778 -88.97  4.63     13.74576   0  0.583
       965   7473.1714   7197.9971  13.4236   0.0294  13.4639   0.0299  13.8396   0.0356    21.140    12.448 -88.59  3.51      14.2531   0  0.035
       966   2219.2410   7003.7305  20.1353   0.6461  20.3473   0.7121  19.9357   0.5948     1.548     1.489 -59.80  4.07     13.77798   0  0.736
       967   8167.2578   7007.3633  20.6596   0.8232  21.7636   1.3673  20.3475   0.7223     1.156     1.017 -12.55  6.85     13.75166   0  0.610
       968    699.3959   7014.3057  20.3997   0.7302  20.9863   0.9558  20.1212   0.6490     1.464     1.373 -33.79  5.39      13.7589   0  0.251
       969   7599.5063   7015.8145  20.5649   0.7877  20.9383   0.9349  20.3899   0.7369     1.316     1.284 -71.41  4.74     13.87849   0  0.546
       970   2557.9097   7032.1235  17.6695   0.2075  17.6926   0.2097  17.5997   0.2011     2.161     2.013 -84.20  3.50     13.76554   0  0.982
       971   2684.6450   7036.1440  20.2320   0.6755  20.4458   0.7452  20.2465   0.6886     1.619     1.408 -74.04  3.73     13.77034   0  0.814
       972   1541.9723   7045.9072  18.5747   0.3151  19.9636   0.5969  18.5204   0.3078     2.731     2.275  75.19  7.49     13.75435   0  0.002
       973   5836.6494   7044.6572  19.4562   0.4729  20.0658   0.6256  19.4432   0.4724     2.269     2.013  -5.58  5.52     13.81159   0  0.000
       974   4749.1221   7077.1743  15.3174   0.0702  15.3114   0.0700  15.2821   0.0691     2.492     2.267 -79.66  3.50     13.77429   0  0.992
       975   2432.4067   7083.2451  16.4397   0.1177  16.4444   0.1180  16.4000   0.1157     2.375     2.178 -87.46  3.50     13.77633   0  0.984
       976    883.1061   7082.8506  17.0308   0.1546  17.0434   0.1555  16.9890   0.1517     2.278     2.147 -79.87  3.50     13.76007   0  0.983
       977   2963.7505   7091.7627  18.9232   0.3700  20.2149   0.6701  18.8630   0.3607     2.410     1.580 -21.37  8.30     13.77198   2  0.000
       978    731.4356   7104.0005  19.6263   0.5115  21.6309   1.2864  19.4436   0.4725     2.551     0.739  59.81  8.49     13.75033   0  0.078
       979   7966.7437   7139.9082  14.4023   0.0461  14.3898   0.0458  14.3717   0.0454     2.528     2.374 -79.27  3.50     13.81203   0  0.999
       980   4999.9756   7111.0615  19.5510   0.4936  19.6879   0.5256  19.5307   0.4921     1.874     1.575 -88.30  3.94     13.80118   0  0.928
       981   3420.3831   7116.9897  19.9521   0.5938  20.1647   0.6547  19.8773   0.5787     1.632     1.477 -85.36  4.10     13.76926   0  0.823
       982   4109.7847   7125.2939  20.3145   0.7022  21.2764   1.0925  20.2934   0.7040     1.428     1.278 -59.07  6.33     13.77785   0  0.092
       983   7641.3242   7126.2261  20.1966   0.6646  20.4114   0.7334  20.1048   0.6440     1.565     1.465  71.22  3.88     13.90279   0  0.744
       984   2871.4619   7148.6255  18.8656   0.3602  19.3332   0.4464  18.8299   0.3552     3.228     2.406 -83.18  4.88     13.78225   0  0.000
       985   2084.6760   7155.5669  20.0002   0.6071  20.2002   0.6655  19.8937   0.5832     1.710     1.503  74.96  3.96     13.74873   0  0.868
       986   6122.0317   7157.8872  18.4721   0.3002  18.5197   0.3069  18.4513   0.2981     2.091     1.873 -89.11  3.50     13.78263   0  0.979
       987   8286.6416   7167.3960  20.0304   0.6162  21.3361   1.1230  19.8809   0.5797     1.481     1.302 -44.67  7.34      13.7285   0  0.008
       988   1226.3783   7191.4258  15.3552   0.0715  15.3488   0.0712  15.3208   0.0703     2.455     2.297 -79.07  3.50     13.76777   0  0.986
       989   2710.6360   7182.2334  20.2731   0.6889  21.9661   1.5009  19.9584   0.6012     1.153     0.906 -65.46  8.12      13.7768   0  0.625
       990   7732.6963   7186.8750  18.0013   0.2417  18.0336   0.2453  17.9745   0.2391     2.151     2.001 -80.69  3.50     13.84188   0  0.981
       991   4940.7310   7181.9082  18.8256   0.3538  19.8886   0.5766  18.8143   0.3527     4.616     1.532  -0.09  6.52     13.78918   0  0.000
       992   5386.2510   7196.4868  20.0295   0.6158  20.8849   0.9122  19.9246   0.5917     1.490     1.383 -88.70  6.43     13.80597   0  0.618
       993   5480.5088   7211.9546  20.2372   0.6775  20.8601   0.9019  19.7847   0.5542     1.565     1.370  43.99  5.53     13.80178   0  0.382
       994     34.7254   7214.7495  18.8472   0.3569  19.0003   0.3829  99.0000  99.0000     1.997     1.914 -87.92  4.48     13.40472   0  0.969
       995   2845.1196   7225.4824  18.7096   0.3352  19.2892   0.4375  18.3315   0.2820     2.546     2.197  73.15  5.90     13.78731   0  0.245
       996   7322.5039   7263.8887  13.8884   0.0364  13.8753   0.0361  13.8588   0.0359     3.182     2.931 -42.68  3.50     13.94625   0  1.000
       997   3184.6851   7236.8457  18.8611   0.3592  18.9219   0.3693  18.8503   0.3586     1.992     1.835 -86.75  3.50     13.77621   0  0.969
       998   6486.6978   7244.9717  19.7889   0.5513  20.6591   0.8222  19.7547   0.5464     2.024     1.664  35.60  5.93     13.76653   0  0.002
       999   6323.2153   7257.2666  19.2458   0.4288  19.3324   0.4462  19.1733   0.4166     1.844     1.722  81.99  3.69     13.77418   0  0.958
      1000   3133.3145   7264.0513  18.4199   0.2931  18.4696   0.2999  18.3920   0.2900     2.077     1.908 -88.68  3.50     13.76788   0  0.975
      1001   1792.6908   7261.9902  20.2147   0.6702  20.4933   0.7617  20.3612   0.7269     1.564     1.397 -85.70  4.15     13.74533   0  0.741
      1002   4481.3120   7264.4370  20.2398   0.6785  21.2050   1.0571  20.1452   0.6564     1.546     1.209  56.70  6.57      13.7444   0  0.038
      1003   3579.4907   7266.5996  19.2089   0.4216  19.2784   0.4352  19.1670   0.4154     1.877     1.753 -88.48  3.50     13.76969   0  0.967
      1004   5785.0913   7269.0796  20.3071   0.6998  21.3790   1.1453  19.9650   0.6031     1.319     1.195  48.11  6.77      13.7885   0  0.404
      1005    102.8984   7272.4971  19.8265   0.5604  19.9985   0.6064  19.7494   0.5451     1.704     1.582  78.87  3.80     13.71055   0  0.880
      1006   1390.4326   7277.6001  19.2371   0.4271  19.3429   0.4484  19.2041   0.4227     1.874     1.750 -79.92  3.60     13.76307   0  0.958
      1007   8179.4414   7283.5713  20.3022   0.6979  20.6519   0.8194  20.2906   0.7031     1.452     1.427  88.00  4.58     13.76145   0  0.702
      1008    556.9308   7293.7056  19.8730   0.5730  20.7248   0.8474  19.5903   0.5060     1.847     1.442 -74.32  6.42     13.73518   0  0.050
      1009   4949.9282   7314.7056  19.4200   0.4650  20.2511   0.6813  18.7238   0.3382     2.067     1.693  80.63  6.33     13.78283   0  0.219
      1010   2762.8384   7327.9229  20.8751   0.9086  21.2763   1.0924  20.7800   0.8875     1.227     1.134 -66.29  4.29     13.77117   0  0.524
      1011   3226.6697   7331.9214  19.2732   0.4346  19.8334   0.5621  19.1900   0.4199     2.593     2.115 -77.76  5.30     13.76798   0  0.005
      1012   1444.3258   7340.3340  18.1860   0.2632  18.2301   0.2686  18.1290   0.2568     2.201     1.992 -72.97  3.50     13.75285   0  0.981
      1013   3641.5476   7344.6753  18.8614   0.3592  18.9261   0.3700  18.7602   0.3439     2.002     1.847 -82.53  3.55     13.77211   0  0.970
      1014   4895.1958   7352.6123  17.6769   0.2082  17.6990   0.2103  17.6010   0.2012     2.143     1.980 -89.36  3.50     13.77896   0  0.982
      1015   1826.8601   7359.1616  17.6138   0.2022  17.6371   0.2044  17.5450   0.1961     2.305     2.056 -70.70  3.50     13.75715   0  0.982
      1016    166.8274   7380.4365  15.2771   0.0689  15.2683   0.0687  15.2402   0.0678     2.736     2.342  88.95  3.50     13.73512   0  0.985
      1017   1984.3547   7360.6890  20.3829   0.7242  20.6271   0.8101  20.1370   0.6539     1.513     1.372  86.48  4.03     13.74494   0  0.777
      1018   3841.2766   7363.6230  20.6034   0.8018  21.1364   1.0242  20.6265   0.8247     1.404     1.143 -80.73  5.03     13.76407   0  0.677
      1019   8338.6650   7376.7812  18.4740   0.3009  19.5026   0.4827  18.4013   0.2913     3.263     2.764  80.38  6.70     13.72579   0  0.000
      1020   1316.3484   7388.9463  16.9951   0.1521  17.0084   0.1530  16.9687   0.1503     2.295     2.133 -75.06  3.50     13.76262   0  0.984
      1021   8469.9111   7380.2480  19.7108   0.5316  20.2623   0.6848  19.6622   0.5233     2.006     1.605 -81.60  5.54     13.69528   0  0.083
      1022   6650.4458   7381.9282  19.4680   0.4755  21.4597   1.1888  19.2833   0.4385     1.524     1.231 -10.81  8.87     13.77209   0  0.042
      1023   8061.1533   7387.9561  18.4615   0.2988  18.5052   0.3048  18.3794   0.2883     2.031     1.884  89.62  3.50     13.79646   0  0.976
      1024   3039.4861   7391.2817  20.2404   0.6784  20.6031   0.8012  19.9991   0.6128     1.560     1.406 -89.79  4.81     13.75763   0  0.724
      1025    977.3140   7396.9712  18.0735   0.2499  18.1131   0.2545  18.0191   0.2441     2.164     1.994 -72.66  3.50     13.75139   0  0.981
      1026   7879.8154   7394.5815  19.6292   0.5117  19.7286   0.5355  19.5854   0.5048     1.773     1.671  73.87  3.50     13.81654   0  0.945
      1027   6433.3667   7408.3560  18.4965   0.3036  18.5383   0.3095  18.4168   0.2934     2.013     1.900  84.68  3.50     13.77788   0  0.978
      1028    479.1444   7414.3608  20.1978   0.6655  21.0926   1.0038  20.0141   0.6171     1.523     1.249 -77.04  6.44     13.74831   0  0.538
      1029   2173.4404   7424.7783  19.8434   0.5653  20.8212   0.8859  19.4523   0.4744     1.645     1.490 -70.62  6.67     13.75957   0  0.041
      1030   2446.1775   7431.2534  19.7493   0.5411  20.3573   0.7154  19.5967   0.5075     1.848     1.540 -66.34  5.82     13.76937   0  0.766
      1031    142.4216   7430.5186  20.2810   0.6910  20.5821   0.7934  20.0764   0.6355     1.463     1.429  85.49  4.03     13.73216   0  0.665
      1032   6647.5640   7431.8735  20.3379   0.7098  21.2036   1.0565  20.5284   0.7870     1.657     1.140  36.47  6.05     13.77875   0  0.021
      1033   1948.6497   7433.7197  20.8431   0.8955  21.4880   1.2043  20.7555   0.8771     1.139     0.999 -76.39  5.55     13.75459   0  0.498
      1034   2200.2451   7437.1772  18.5496   0.3112  18.5994   0.3184  18.4050   0.2918     2.085     1.878 -74.04  3.50     13.76114   0  0.975
      1035   4677.8159   7439.3379  20.5806   0.7935  21.0781   0.9971  20.5179   0.7831     1.417     1.163 -72.74  5.07     13.76787   0  0.701
      1036   3760.2029   7441.4429  18.9590   0.3757  19.0264   0.3875  18.8395   0.3568     2.010     1.799 -85.39  3.50     13.77064   0  0.967
      1037   3651.5920   7443.6382  21.0586   0.9892  21.9126   1.4644  21.0887   1.0300     1.041     0.898  46.30  6.07     13.76586   0  0.502
      1038   5203.6299   7444.8931  20.1709   0.6568  20.4141   0.7344  20.1446   0.6562     1.611     1.412  76.99  3.90     13.78359   0  0.689
      1039   2613.8315   7484.9819  14.6525   0.0517  14.6418   0.0514  14.6228   0.0510     2.561     2.352 -71.65  3.50     13.78403   0  0.998
      1040   6921.8022   7468.5864  19.6699   0.5218  21.6438   1.2940  19.3979   0.4626     1.510     1.122  63.51  8.69     13.79957   0  0.074
      1041   1917.9895   7494.7769  20.8485   0.8980  21.6546   1.3004  20.5298   0.7875     1.216     1.028 -43.02  5.90     13.76556   0  0.644
      1042    472.4717   7500.0215  20.8662   0.9051  21.5944   1.2647  20.5361   0.7899     1.171     0.972  89.14  5.70      13.7469   0  0.524
      1043   8135.6641   7522.1870  19.0531   0.3924  19.1379   0.4080  19.0297   0.3898     1.892     1.781 -87.31  3.50     13.78681   0  0.966
      1044   4824.4097   7542.6450  16.5067   0.1214  16.5108   0.1217  16.4578   0.1188     2.307     2.149 -83.06  3.50     13.77377   0  0.985
      1045   2339.0420   7536.1670  20.7092   0.8417  21.1310   1.0217  20.5742   0.8043     1.286     1.172 -83.57  4.33     13.76431   0  0.596
      1046   4592.7900   7547.2734  18.4537   0.2977  18.4972   0.3037  18.4267   0.2947     2.038     1.903 -89.99  3.50     13.75371   0  0.976
      1047    539.0676   7574.1890  16.8888   0.1448  16.9006   0.1456  16.8550   0.1426     2.301     2.159 -81.95  3.50     13.74936   0  0.983
      1048   6310.9873   7581.3892  18.5300   0.3084  18.5877   0.3166  18.5134   0.3068     2.087     1.882 -79.01  3.50     13.75999   0  0.974
      1049   2109.8184   7581.8989  20.0564   0.6236  21.1542   1.0328  19.9176   0.5898     1.710     1.223 -10.13  7.01     13.76813   0  0.008
      1050   7938.8306   7602.5630  17.9056   0.2314  18.0949   0.2524  17.8748   0.2283     3.942     3.318  85.15  4.08      13.8155   0  0.011
      1051   3293.4309   7596.1274  20.5677   0.7890  21.4699   1.1943  20.4810   0.7695     1.315     1.034  78.38  6.27     13.75065   0  0.691
      1052   1084.9406   7629.7002  17.3046   0.1754  17.3232   0.1769  17.2611   0.1720     2.218     2.079 -84.15  3.50     13.75829   0  0.983
      1053    324.7379   7656.7207  17.8993   0.2306  17.9303   0.2339  17.8538   0.2261     2.137     2.041 -85.36  3.50     13.73164   0  0.980
      1054     10.4229   8201.1650  13.7685   0.0344  13.4394   0.0296  16.4233   0.1169   250.818     6.409  90.00  3.50    -4.898786  25  0.000
      1055   1630.9180   7656.9155  19.9179   0.5845  20.1208   0.6416  19.9580   0.6011     1.687     1.554 -55.76  3.97     13.77042   0  0.898
      1056   2005.4486   7660.4561  20.6439   0.8170  21.1702   1.0403  20.4649   0.7636     1.423     1.077 -77.69  5.11     13.77243   0  0.522
      1057   4361.0298   7664.3052  18.6211   0.3216  18.6804   0.3305  18.3309   0.2819     2.075     1.843 -84.61  3.53     13.63804   0  0.976
      1058   1768.9495   7666.9033  19.8347   0.5626  19.9949   0.6054  19.8286   0.5657     1.703     1.580 -76.26  4.08     13.77758   0  0.898
      1059   6852.5103   7673.7905  20.7987   0.8773  21.4184   1.1663  20.9451   0.9608     1.236     1.027 -89.50  5.30     13.78698   0  0.620
      1060   1237.2701   7686.5269  20.6705   0.8271  21.1581   1.0345  20.3254   0.7147     1.330     1.150 -89.39  5.21     13.74912   0  0.600
      1061   6520.3076   7693.4478  19.5174   0.4860  19.6591   0.5187  19.2968   0.4413     1.792     1.661  64.34  3.90     13.75591   0  0.952
      1062   7223.2236   7712.0674  17.9487   0.2359  17.9752   0.2388  17.9296   0.2342     2.092     1.986 -86.99  3.50     13.79302   0  0.980
      1063   8513.9863   8159.6768  18.3401   0.2948  13.8312   0.0354  17.1999   0.1672   206.354     7.459 -89.25  3.50      6.67691  18  0.000
      1064    837.6769   7726.1274  17.8820   0.2288  17.9124   0.2320  17.7529   0.2158     2.172     2.032 -80.60  3.50     13.78114   0  0.982
      1065   5492.8457   7735.1650  16.6162   0.1277  16.6216   0.1280  16.5797   0.1256     2.324     2.140 -83.10  3.50     13.77664   0  0.984
      1066     48.0986   8059.4473  12.5983   0.0201  12.6882   0.0209  15.7282   0.0849   244.049    12.929  88.79  3.50     3.250369  19  0.000
      1067   3568.2163   7725.2021  20.0308   0.6161  20.6249   0.8093  20.0751   0.6351     1.918     1.521 -20.62  5.21     13.76383   0  0.008
      1068    836.5558   7747.9448  15.8687   0.0905  15.8669   0.0904  15.8268   0.0888     2.408     2.265 -77.82  3.50     13.78026   0  0.990
      1069   4477.4468   7765.7588  17.6543   0.2062  18.4441   0.2964  17.6573   0.2065     5.140     3.644  74.14  6.18     13.76415   0  0.000
      1070   3345.1250   8546.7373  20.5371   0.7777  20.9643   0.9462  20.4071   0.7429     1.413     1.253  86.93  4.69     13.79306   0  0.641
      1071   1954.9550   8726.5508  21.0128   0.9677  21.1527   1.0319  20.4653   0.7583     1.049     0.933  -1.36  3.50     13.81939  24  0.645
      1072   3037.3254   8693.7764  20.9872   0.9569  21.5368   1.2316  20.6829   0.8472     1.138     1.001  80.58  5.16     13.78083   0  0.535
      1073   1598.5656   8691.8535  19.0988   0.4008  19.1984   0.4195  18.9967   0.3838     1.913     1.758  87.36  3.80     13.81294   0  0.967
      1074   3275.4089   8688.4180  19.0010   0.3831  19.0651   0.3945  18.9880   0.3823     1.962     1.774  88.34  3.50     13.78571   0  0.965
      1075   7748.6670   8682.0088  19.9480   0.5929  20.9060   0.9211  99.0000  99.0000     1.229     1.110  67.69  6.68     11.92254   0  0.661
      1076   3970.5269   8624.6816  20.6048   0.8022  20.9463   0.9384  20.3821   0.7342     1.384     1.262  87.70  4.40     13.79291   0  0.569
      1077   3836.6006   8619.2100  18.9138   0.3683  19.4021   0.4608  18.8374   0.3565     3.819     2.156  57.12  4.94     13.78624   0  0.000
      1078    392.8380   8604.7520  17.2439   0.1705  17.2604   0.1718  17.3569   0.1798     2.244     2.143 -82.75  3.50     13.77743   0  0.983
      1079   6265.6118   8601.7480  17.1215   0.1612  17.1371   0.1623  17.0619   0.1569     2.297     2.085 -76.86  3.50     13.76312   0  0.983
      1080   7480.4150   8596.8545  20.3794   0.7236  21.7988   1.3897  21.0545   1.0130     1.262     0.994  73.31  7.55     13.84002   0  0.116
      1081   2833.5986   8588.2197  16.6032   0.1270  16.6092   0.1273  16.5622   0.1246     2.300     2.136 -81.90  3.50     13.79226   0  0.984
      1082   5835.4258   8586.5879  20.4243   0.7383  20.7554   0.8594  20.1258   0.6504     1.460     1.388  67.36  4.66     13.76513   0  0.694
      1083    616.6329   8584.3350  19.0229   0.3870  19.1058   0.4020  18.9828   0.3814     1.976     1.789 -81.94  3.50     13.78757   0  0.967
      1084   5331.5054   8582.4648  20.7403   0.8543  21.6367   1.2896  20.5082   0.7795     1.073     1.070 -61.28  6.34     13.76224   0  0.522
      1085   6537.6504   8490.2441  20.4406   0.7436  20.1837   0.6604  20.0915   0.6400     1.957     0.974 -62.94  3.50     13.73075   0  0.845
      1086   4933.4688   8465.7617  20.8601   0.9025  21.4038   1.1584  21.1051   1.0382     1.229     1.025 -88.19  5.18     13.76392   0  0.648
      1087   1734.5028   8448.3418  18.9044   0.3664  18.9773   0.3789  18.9053   0.3679     1.986     1.791 -81.80  3.50     13.80284   0  0.971
      1088   8360.4688   8442.6357  18.3052   0.2783  18.8255   0.3534  18.2567   0.2724     4.783     3.091  21.93  5.07     13.82791   0  0.000
      1089   2057.3235   8439.4941  20.0045   0.6083  20.1734   0.6573  20.1088   0.6452     1.661     1.513 -73.14  3.71     13.80046   0  0.888
      1090   5011.0889   8440.0391  20.6566   0.8220  21.4519   1.1844  19.9989   0.6128     1.252     1.135 -68.28  6.07     13.75806   0  0.594
      1091    221.5368   8435.3545  17.6822   0.2087  17.7072   0.2111  17.6132   0.2024     2.166     2.098 -88.97  3.50      13.7793   0  0.983
      1092   7766.5254   8433.6172  19.7102   0.5317  21.3656   1.1384  19.4876   0.4823     1.642     1.225 -40.83  8.12     13.82276   0  0.008
      1093   1243.9849   8433.3945  20.1043   0.6375  21.0488   0.9838  19.9203   0.5905     1.901     1.143  38.50  6.50     13.78643   0  0.005
      1094   4799.0249   8435.4326  17.7298   0.2135  18.3389   0.2824  17.7138   0.2120     5.716     3.791  38.16  5.54     13.76621   0  0.000
      1095   3908.3022   8415.7490  19.1159   0.4044  20.4370   0.7423  19.0508   0.3936     2.384     2.035  60.76  7.23     13.78659   0  0.002
      1096    388.3044   8708.9072  99.0000  99.0000  14.3523   0.0450  17.2371   0.1701   116.574     8.679   0.41  0.00     6.059713  18  0.000
      1097     86.1492   8675.9131  13.8268   0.0354  13.7170   0.0336  14.7139   0.0532    31.656    23.715  33.17  3.50   0.01790607  19  0.001
      1098   6690.3691   8412.4531  20.0800   0.6304  21.1522   1.0318  19.7995   0.5580     1.522     1.327  29.10  6.96      13.7674   0  0.010
      1099   6071.2793   8709.5977  19.9028   0.5809  20.8716   0.9067  99.0000  99.0000     1.582     1.406 -54.65  6.66     13.63772  16  0.535
      1100   2997.5303   8375.5771  16.6615   0.1304  16.6689   0.1309  16.6222   0.1281     2.337     2.141 -77.92  3.50      13.7724   0  0.983
      1101   1963.3026   8358.5713  16.5220   0.1223  16.5279   0.1226  16.4846   0.1203     2.313     2.170 -79.48  3.50     13.79583   0  0.985
      1102   5257.6401   8375.5840  19.4222   0.4651  19.5294   0.4886  19.5053   0.4863     1.768     1.671  61.45  3.50     13.75257   0  0.954
      1103   1839.6541   8356.0723  19.8873   0.5765  20.2423   0.6785  19.8804   0.5796     1.880     1.504 -84.86  4.81     13.79998   0  0.821
      1104   1769.5118   8341.3525  20.8478   0.8974  21.5295   1.2275  21.0097   0.9913     1.177     1.037 -74.79  5.25     13.79817   0  0.488
      1105   5196.2949   8348.6318  15.0916   0.0633  15.0841   0.0631  15.0605   0.0624     2.483     2.277 -81.10  3.50     13.75824   0  0.995
      1106   3979.2688   8356.7324  19.2700   0.4336  19.3762   0.4553  19.0740   0.3979     1.909     1.714 -84.79  3.68     13.77299   0  0.958
      1107    803.4882   8026.5303  16.8322   0.1411  16.8417   0.1417  16.8011   0.1391     2.319     2.169 -79.02  3.50     13.75968   0  0.983
      1108    251.6115   8035.1279  18.7128   0.3355  18.7594   0.3427  18.6544   0.3275     1.997     1.904  86.12  3.50     13.73148   0  0.972
      1109   3179.7043   8048.6558  19.8505   0.5668  20.2769   0.6894  19.5455   0.4955     1.873     1.551 -71.10  4.88     13.75852   0  0.562
      1110   6892.3643   8037.2290  18.8322   0.3544  18.8914   0.3642  18.7704   0.3456     1.985     1.841  85.88  3.50     13.76917   0  0.971
      1111   2081.6499   8235.6748  20.5653   0.7878  20.9370   0.9343  20.3110   0.7099     1.393     1.262  51.27  4.45      13.7852   0  0.638
      1112   6223.0239   8123.5874  20.0667   0.6260  20.2550   0.6825  20.0582   0.6301     1.607     1.550  66.99  4.00     13.73037   0  0.915
      1113   8331.9893   7861.0234  20.5735   0.7908  21.0829   0.9993  20.5333   0.7888     1.204     1.193 -81.94  5.20     13.75259   0  0.647
      1114   1638.3286   8178.8647  18.0423   0.2463  18.0760   0.2502  18.0304   0.2454     2.104     1.998 -81.62  3.50     13.79269   0  0.981
      1115   3263.5520   8518.5391  14.3917   0.0459  14.3792   0.0456  14.3627   0.0452     2.505     2.338 -83.95  3.50     13.80066   0  0.997
      1116   1006.0464   8157.7310  19.0495   0.3918  19.2812   0.4358  18.9736   0.3797     2.293     2.100 -49.90  4.16     13.77025   0  0.546
      1117   5887.8696   8583.9561  20.8606   0.9022  20.9572   0.9430  20.6323   0.8269     1.142     1.029 -54.23  3.50     13.76797   0  0.671
      1118   7322.9219   7743.0903  20.5092   0.7677  20.8285   0.8888  20.3581   0.7259     1.358     1.324  56.51  4.56     13.79417   0  0.577
      1119   1485.0073   8392.0557  18.1500   0.2589  18.1912   0.2638  18.0628   0.2491     2.124     1.995 -69.87  3.50     13.78972   0  0.979
      1120   1192.2065   8116.5737  19.4349   0.4684  20.9709   0.9492  19.1809   0.4181     2.084     1.359  27.81  7.85     13.76093   0  0.001
      1121   1511.3369   8030.6309  21.0170   0.9704  21.8615   1.4303  20.8328   0.9102     1.037     0.896 -47.95  6.22     13.76759   0  0.488
      1122   7861.2866   8009.1616  20.1749   0.6582  20.5645   0.7871  19.8726   0.5775     1.532     1.389 -78.82  5.03     13.81037   0  0.646
      1123   5089.8291   8608.3281  18.8871   0.3635  18.9481   0.3738  18.7888   0.3485     2.002     1.826 -79.17  3.50     13.76345   0  0.966
      1124   5199.3755   8029.2554  20.2409   0.6783  20.4525   0.7475  20.1368   0.6538     1.562     1.406  79.96  4.02     13.78014   0  0.667
      1125   8400.7402   7962.9497  20.4394   0.7438  21.6077   1.2726  20.2910   0.7032     1.211     1.107 -31.29  6.96     13.75439   0  0.464
      1126   1399.1874   7949.8354  19.6211   0.5098  19.7434   0.5392  19.5145   0.4884     1.879     1.657 -74.61  3.50     13.75813   0  0.924
      1127    184.3503   8293.7119  18.6278   0.3229  19.5518   0.4937  18.2884   0.2764     3.619     2.171 -71.74  6.53      13.7794   0  0.000
      1128   3885.3613   8358.1143  18.5675   0.3139  19.1209   0.4048  18.4766   0.3016     2.810     2.566  48.38  5.50     13.78041   0  0.074
      1129   7313.9897   8448.0664  16.7242   0.1342  16.7321   0.1347  16.6872   0.1320     2.273     2.133 -78.26  3.50     13.80358   0  0.983
      1130   3394.9895   8096.9990  16.8684   0.1434  16.8786   0.1441  16.8232   0.1406     2.289     2.109 -80.49  3.50     13.76914   0  0.983
      1131   8063.5718   8183.4297  17.5944   0.2004  17.6160   0.2024  17.5611   0.1976     2.183     2.056 -69.91  3.50     13.81847   0  0.984
      1132   6830.7041   8057.0005  20.5525   0.7831  20.9409   0.9360  20.4703   0.7656     1.302     1.244   4.01  4.59     13.75335   0  0.534
      1133   4517.6514   7967.6992  19.6485   0.5163  19.7853   0.5497  19.4702   0.4784     1.795     1.661 -88.33  3.80     13.75482   0  0.918
      1134   4996.9863   8305.4268  15.8489   0.0897  15.8470   0.0896  15.8148   0.0883     2.395     2.199 -83.83  3.50     13.77868   0  0.984
      1135   4837.9043   8038.8062  16.3024   0.1105  16.3041   0.1106  16.2627   0.1086     2.306     2.152 -89.80  3.50     13.77434   0  0.985
      1136   5087.5273   8151.9478  17.1457   0.1630  17.1597   0.1640  17.1275   0.1617     2.244     2.066 -83.85  3.50     13.76699   0  0.983
      1137   5920.4590   8518.2041  20.5314   0.7756  20.8468   0.8963  20.1140   0.6469     1.368     1.350  10.00  4.63     13.74942   0  0.613
      1138    122.7708   8054.7300  20.0603   0.6241  20.0616   0.6243  99.0000  99.0000     1.566     1.475 -87.46  3.50     13.74321   0  0.909
      1139   4339.4448   7812.9023  18.3286   0.2810  18.3837   0.2883  17.9481   0.2362     2.153     1.933 -77.03  3.64     13.55615   0  0.977
      1140    227.9261   8506.7734  20.5969   0.7995  21.1153   1.0143  20.3647   0.7281     1.324     1.191  68.11  5.33     13.77868   0  0.691
      1141   3482.8213   7862.5308  16.0073   0.0965  16.0067   0.0965  15.9726   0.0950     2.419     2.192 -75.82  3.50     13.78927   0  0.987
      1142   4089.8450   8060.7852  14.0475   0.0391  14.0308   0.0388  14.0094   0.0384     3.642     3.293 -83.85  3.50     13.80141   0  1.000
      1143   2246.0488   7749.8228  20.1261   0.6439  21.3404   1.1252  20.1208   0.6489     1.440     1.288  65.69  7.07     13.77055   0  0.038
      1144   3450.0889   8030.1523  20.1833   0.6606  20.4595   0.7499  20.1185   0.6482     1.559     1.435 -53.72  4.17     13.78054   0  0.788
      1145   4991.9053   8642.0361  20.6220   0.8084  20.6142   0.8052  20.6484   0.8333     1.953     0.934  77.73  3.50     13.76562   0  0.730
      1146   7993.8696   8051.1514  20.5317   0.7762  21.5757   1.2540  20.1637   0.6622     1.262     1.084  46.92  6.84     13.81728   0  0.480
      1147   5608.0186   8133.2358  20.8886   0.9144  21.4574   1.1874  20.5359   0.7898     1.190     1.082 -66.64  4.96      13.7475   0  0.501
      1148   2949.2827   8176.6421  19.3919   0.4587  19.5267   0.4880  19.4017   0.4634     1.930     1.691 -80.29  3.73     13.75781   0  0.955
      1149   7950.0342   7981.4028  18.6158   0.3208  18.6698   0.3288  18.5482   0.3118     2.001     1.873 -83.61  3.50     13.81419   0  0.975
      1150   1256.4602   8261.3320  18.8175   0.3520  18.8257   0.3533  18.7733   0.3460     1.819     1.815   3.70  3.50     13.77925   0  0.970
      1151   4248.8545   8502.4658  20.1799   0.6595  20.0373   0.6174  99.0000  99.0000     1.746     1.375 -89.43  3.50     13.50553   0  0.918
      1152    938.2723   8466.6025  20.3850   0.7246  20.3562   0.7150  20.2961   0.7049     1.112     1.046 -16.21  3.50     13.78944   0  0.655
      1153   6982.8247   8150.2046  19.7392   0.5388  20.9739   0.9504  19.7229   0.5384     1.719     1.322  25.32  7.39     13.76308   0  0.510
      1154   5676.5913   8079.3960  18.9762   0.3792  20.2805   0.6907  18.7800   0.3471     2.836     1.833 -67.45  7.24     13.74951   0  0.001
      1155   4082.9919   8173.4873  19.8503   0.5670  21.8267   1.4077  19.5659   0.5003     1.358     0.988  23.51  8.50     13.79998   0  0.074
      1156   8384.6934   8557.4707  19.1209   0.4048  19.1274   0.4060  18.6180   0.3220     1.838     1.798 -17.52  3.66     13.85496   0  0.966
      1157   6168.1733   8118.3140  20.2377   0.6778  21.2945   1.1017  20.2584   0.6924     1.454     1.184  70.39  6.83     13.73188   0  0.536
      1158   3914.4312   8183.1763  15.6733   0.0827  15.6697   0.0826  15.6406   0.0815     2.439     2.216 -79.03  3.50      13.7727   0  0.985
      1159   5954.7402   7944.5854  16.6244   0.1282  16.6313   0.1286  16.5832   0.1258     2.314     2.141 -84.43  3.50     13.75837   0  0.985
      1160   7289.4492   8016.8354  18.6521   0.3262  18.7017   0.3337  18.5491   0.3119     2.037     1.888 -89.90  3.50      13.7843   0  0.974
      1161   7953.8008   7945.7920  20.6370   0.8146  21.4810   1.2004  20.3794   0.7332     1.250     1.086 -43.83  6.16     13.81261   0  0.671
      1162   4763.8384   8089.4741  20.4930   0.7624  22.0652   1.5711  20.1118   0.6462     1.072     0.914  77.25  7.83     13.76992   0  0.476
      1163   1207.9122   7849.6626  19.4347   0.4678  19.5372   0.4903  19.3809   0.4589     1.858     1.675  89.36  3.57     13.75541   0  0.948
      1164   6569.3896   7989.3296  15.5334   0.0776  15.5290   0.0774  15.4994   0.0764     2.424     2.241 -82.52  3.50     13.75038   0  0.985
      1165   4509.3887   8325.9131  20.6122   0.8055  21.7113   1.3348  20.3828   0.7344     1.251     0.983  74.96  6.81     13.77526   0  0.650
      1166   1160.3402   8102.7349  20.7234   0.8477  21.9649   1.5001  20.0833   0.6376     1.147     0.921  35.77  6.85     13.75751   0  0.443
      1167   5063.2896   8634.9932  19.2308   0.4259  19.3067   0.4410  19.0357   0.3908     1.874     1.718  86.34  3.51     13.76939   0  0.958
      1168   8485.3877   8656.2793  14.7821   0.0549  14.5331   0.0489  15.0442   0.0619    21.644    17.834 -36.90  3.50     3.343595  18  0.000
      1169    683.4501   7976.0098  19.5011   0.4828  20.1837   0.6605  19.4548   0.4750     2.376     1.989 -30.08  5.40     13.76257   0  0.000
      1170   3199.4814   8188.2920  20.7759   0.8682  21.4301   1.1726  21.0253   0.9988     1.233     1.028 -87.03  5.44     13.76428   0  0.572
      1171   3843.3650   7888.3848  17.8025   0.2207  18.1241   0.2558  17.5251   0.1943     4.076     2.670 -52.81  5.20     13.77568   0  0.090
      1172   7098.5493   8480.2539  20.7332   0.8508  20.7400   0.8533  20.9802   0.9772     1.208     1.051  -4.45  3.50     13.79365   0  0.645
      1173   3972.9368   8056.1992  20.3627   0.7176  20.6903   0.8340  20.1364   0.6537     1.501     1.306 -89.83  4.73     13.77879   0  0.641
      1174   7814.4805   7833.5059  20.8420   0.8954  21.7347   1.3492  20.6044   0.8160     1.086     1.076 -17.40  6.28     13.80064   0  0.541
      1175   2174.5417   7879.3877  20.6511   0.8198  21.1162   1.0147  20.2959   0.7048     1.412     1.132 -73.04  5.18     13.77422   0  0.612
      1176   1952.6082   7872.9722  17.7676   0.2170  17.7945   0.2197  17.7146   0.2121     2.213     2.037 -77.18  3.50     13.76139   0  0.982
      1177   6972.0605   8002.5454  20.0999   0.6356  20.2806   0.6906  19.8890   0.5819     1.559     1.527 -55.16  3.74     13.77449   0  0.868
      1178   8298.8252   8640.3467  19.5894   0.5023  19.5568   0.4948  99.0000  99.0000     1.672     1.607 -73.39  3.50     13.73188   0  0.956
      1179   5743.3530   7757.0112  19.9587   0.5957  20.1943   0.6636  19.7121   0.5357     1.648     1.516 -77.88  4.47      13.7605   0  0.881
      1180   5444.9453   8650.6162  20.3294   0.7065  20.4052   0.7314  20.3116   0.7101     2.562     0.949  57.83  3.50     13.77084   0  0.808
      1181   5220.1006   7848.4800  17.4781   0.1899  17.5001   0.1919  17.4334   0.1863     2.275     2.022  89.66  3.50     13.75792   0  0.983
      1182   8389.1943   8100.8765  17.0792   0.1581  17.0922   0.1590  17.0123   0.1534     2.180     2.127 -89.40  3.50     13.78349   0  0.983
      1183   5760.5864   7921.3516  20.0456   0.6204  20.7803   0.8693  19.6976   0.5320     1.761     1.371 -22.72  5.97     13.76019   0  0.654
      1184   6428.3467   8628.0371  18.5600   0.3127  18.6166   0.3209  18.6413   0.3255     2.594     1.866 -85.49  3.50     13.74729   0  0.976
      1185   6830.4897   7982.2749  20.6672   0.8260  21.9472   1.4880  20.0387   0.6243     1.025     1.006   7.79  6.98     13.76121   0  0.530
      1186   3582.3691   7868.2246  15.7343   0.0851  15.9258   0.0929  15.8855   0.0912    12.330     4.632  45.87  4.33     13.79544   0  0.028
      1187   1746.3112   8040.2690  19.9717   0.5997  20.9387   0.9352  19.7108   0.5353     1.636     1.380  89.97  6.62     13.78883   0  0.036
      1188    663.0792   7779.5205  19.4718   0.4759  19.5859   0.5015  19.3319   0.4486     1.792     1.707  86.92  3.71     13.74565   0  0.940
      1189    224.7663   8278.7969  19.3249   0.4447  19.4282   0.4663  19.1610   0.4143     1.846     1.738  81.11  3.54      13.7685   0  0.957
      1190    575.6141   7744.3564  18.7366   0.3392  18.7960   0.3485  18.6577   0.3280     1.995     1.921 -78.89  3.50     13.74649   0  0.974
      1191   7088.5381   8288.8701  21.1373   1.0256  21.8737   1.4384  22.1107   1.7174     1.045     0.905 -15.72  5.68     13.76232   0  0.522
      1192   1305.6743   8660.5332  19.0130   0.3852  19.0938   0.3998  18.8947   0.3661     1.940     1.802 -89.99  3.57      13.8066   0  0.967
      1193   3487.4727   8340.1143  17.5394   0.1954  17.5595   0.1972  17.5128   0.1932     2.206     2.032 -86.58  3.50     13.77379   0  0.984
      1194   6958.7427   7825.0073  20.3253   0.7057  21.5546   1.2418  20.0037   0.6141     1.241     1.117  89.06  7.11     13.78762   0  0.611
      1195   6954.6348   8700.1250  99.0000  99.0000  13.5983   0.0318  17.7924   0.2198   347.855     5.749  -0.64  0.00     7.971264  16  0.000
      1196    827.9227   8517.8174  18.3131   0.2790  18.3559   0.2846  18.2669   0.2737     2.121     1.981 -72.64  3.50     13.78326   0  0.978
      1197   4155.9648   8706.3838  18.0272   0.2446  18.0199   0.2438  17.8861   0.2295     2.178     1.970 -79.85  3.50     13.79593  16  0.980
      1198   4607.4980   7760.5132  17.2451   0.1706  17.2603   0.1718  17.2145   0.1684     2.259     2.061 -83.12  3.50     13.76167   0  0.984
      1199   1392.3059   8298.8926  20.8189   0.8855  21.3980   1.1554  21.0639   1.0177     1.284     1.100 -69.21  4.90     13.78349   0  0.621
      1200   3576.9463   8648.8301  20.2463   0.6805  21.1027   1.0085  20.1726   0.6650     1.464     1.372 -67.09  6.13     13.76459   0  0.418
      1201   3855.9912   8494.3643  20.1625   0.6548  21.7723   1.3728  19.9943   0.6114     1.303     1.035  -0.06  7.90     13.78951   0  0.092
      1202   4609.5615   8418.1650  15.5176   0.0770  15.5130   0.0768  15.4859   0.0759     2.422     2.228 -82.13  3.50     13.77778   0  0.987
      1203   2678.5085   7746.4937  21.1061   1.0111  22.0050   1.5281  21.0020   0.9876     0.938     0.923 -86.00  6.21     13.76875   0  0.497
      1204   1944.7515   8697.4736  20.4758   0.7564  21.8118   1.3980  20.2794   0.6994     1.202     0.979  29.37  7.32     13.80836   0  0.570
      1205   1566.7931   8096.0259  20.5849   0.7950  21.0480   0.9834  20.3511   0.7235     1.276     1.242 -72.37  5.04     13.78776   0  0.689
