#   1 NUMBER                 Running object number                                     
#   2 X_IMAGE                Object position along x                                    [pixel]
#   3 Y_IMAGE                Object position along y                                    [pixel]
#   4 MAG_AUTO               Kron-like elliptical aperture magnitude                    [mag]
#   5 MAGERR_AUTO            RMS error for AUTO magnitude                               [mag]
#   6 MAG_ISO                Isophotal magnitude                                        [mag]
#   7 MAGERR_ISO             RMS error for isophotal magnitude                          [mag]
#   8 MAG_APER               Fixed aperture magnitude vector                            [mag]
#   9 MAGERR_APER            RMS error vector for fixed aperture mag.                   [mag]
#  10 A_IMAGE                Profile RMS along major axis                               [pixel]
#  11 B_IMAGE                Profile RMS along minor axis                               [pixel]
#  12 THETA_IMAGE            Position angle (CCW/x)                                     [deg]
#  13 KRON_RADIUS            Kron apertures in units of A or B                         
#  14 BACKGROUND             Background at centroid position                            [count]
#  15 FLAGS                  Extraction flags                                          
#  16 CLASS_STAR             S/G classifier output                                     
         1   8470.2266     48.4904  16.1117   0.1011  15.3495   0.0711  15.5838   0.0792    17.001    13.091  24.06  3.50     4.814051  18  0.000
         2   8498.5625     10.9887  16.2710   0.1087  16.2594   0.1081  16.3534   0.1129    17.020     7.224   3.99  3.50    -3.187414  27  0.000
         3    692.4316     62.6567  15.5178   0.0768  15.8300   0.0887  15.6410   0.0813    10.880     7.343  -4.56  4.00     6.608634   3  0.484
         4    822.9484     56.7379  14.0717   0.0395  14.0351   0.0388  13.9965   0.0381     5.604     3.441 -33.55  3.50     8.168417   3  0.992
         5    682.7743     40.5618  99.0000  99.0000  12.6941   0.0209  15.7793   0.0866   314.362    13.197  -2.45  0.00     1.807139  19  0.000
         6   4611.5933     43.1410  13.6968   0.0332  13.6711   0.0328  13.6559   0.0326     5.083     4.464 -77.98  3.50     14.06503   0  0.950
         7   3200.5132     38.4949  17.0888   0.1583  17.1049   0.1595  17.0513   0.1557     2.461     2.209 -31.41  3.50     13.81266   0  0.983
         8    414.7292     10.6167  99.0000  99.0000  13.4684   0.0299  16.3817   0.1143   235.816     6.534   0.03  0.00    -4.747151  24  0.000
         9   5581.2637     19.7971  18.0791   0.2498  18.1159   0.2541  99.0000  99.0000     2.307     2.077 -25.58  3.50     13.83138  16  0.979
        10   4990.6729     20.7453  19.3451   0.4482  20.5039   0.7633  99.0000  99.0000     2.051     1.855  34.68  7.17     13.82455  16  0.001
        11   3598.5173     21.9942  20.7995   0.8754  21.8074   1.3913  20.7997   0.8923     1.086     0.957 -39.60  6.44     13.81053  16  0.495
        12   3030.1414      4.9087  21.1986   1.0513  21.8126   1.3946  99.0000  99.0000     1.308     0.778   6.43  3.50     13.82291  16  0.572
        13   2186.5247     55.2246  16.3836   0.1144  16.3906   0.1148  16.3453   0.1125     2.571     2.307 -39.89  3.50     14.23678   0  0.984
        14   1391.7205     40.8766  19.9502   0.5921  21.2703   1.0864  99.0000  99.0000     1.478     1.275  -7.99  7.44     14.56227   0  0.404
        15   7524.1509     44.7365  18.8707   0.3601  19.5543   0.4929  18.4858   0.3020     2.672     2.317 -39.86  5.99     13.71739   0  0.004
        16   1015.7195     64.7935  18.0312   0.2447  19.0039   0.3826  17.9067   0.2311     3.655     3.321  14.23  6.81      13.9422   0  0.000
        17   3659.9233     62.2594  19.7923   0.5502  19.9734   0.5978  19.6943   0.5297     1.883     1.645 -19.54  4.05     13.84762   0  0.895
        18   2223.0674     63.9709  19.6643   0.5186  19.8532   0.5656  19.4568   0.4741     1.948     1.676 -24.07  3.98     14.19672   0  0.906
        19   1294.1903     67.7197  20.0137   0.6096  20.5885   0.7936  18.7942   0.3484     1.677     1.466 -23.89  5.83     14.41805   0  0.682
        20   2540.5601    102.0956  14.0628   0.0393  14.0528   0.0391  14.0377   0.0388     2.743     2.494 -38.71  3.50     14.01026   0  0.999
        21   4738.6943     69.6716  19.5052   0.4819  19.6346   0.5114  19.4999   0.4837     2.036     1.749 -45.38  3.53     13.85696   0  0.891
        22   3550.5232    154.7966  13.6420   0.0324  13.6190   0.0320  13.6030   0.0318     4.553     4.099 -71.02  3.50     13.94936   0  0.928
        23   6063.1074     98.2383  15.4915   0.0759  15.4861   0.0757  15.4552   0.0746     2.658     2.381 -31.55  3.50     13.82308   0  0.985
        24   4178.7925     80.2078  20.1873   0.6600  20.4866   0.7572  19.8071   0.5584     1.690     1.443 -40.57  4.03     13.79058   0  0.644
        25   5463.5283     80.5208  21.0371   0.9766  21.8426   1.4140  20.9476   0.9593     1.150     0.865 -43.22  5.81     13.84156   0  0.573
        26    489.6498     88.3936  19.1181   0.4036  20.6718   0.8247  19.6101   0.5093     1.968     1.652 -18.45  7.86     12.00508   1  0.002
        27    564.9640     94.0152  19.0679   0.3942  19.5308   0.4875  21.3010   1.1392     2.132     1.834 -41.05  5.76     13.34458   0  0.789
        28   1148.5687     93.8978  20.1717   0.6557  21.8469   1.4169  19.1932   0.4194     1.268     0.999 -74.05  7.98     14.32479   0  0.094
        29   4465.6011    103.7404  17.5372   0.1946  17.5578   0.1965  17.5081   0.1922     2.388     2.161 -39.16  3.50     13.83696   0  0.981
        30   3734.6833    132.4811  14.2803   0.0434  14.2715   0.0433  14.2565   0.0430     2.691     2.462 -36.51  3.50     13.85977   0  0.998
        31   1921.9240    106.3792  18.8845   0.3621  18.9789   0.3781  18.6481   0.3256     2.147     1.953 -34.61  3.72     14.50443   0  0.942
        32   6857.9131    112.8144  20.0493   0.6193  20.2977   0.6941  19.5065   0.4852     1.729     1.579 -42.02  4.16     13.82567   0  0.818
        33    492.7717    136.6606  16.4932   0.1203  16.4963   0.1205  16.7283   0.1342     2.471     2.243 -45.33  3.50     13.96519   0  0.986
        34   4305.8042    126.7414  18.9357   0.3707  19.0073   0.3831  99.0000  99.0000     2.183     1.933 -46.46  3.50     13.79115   0  0.954
        35   6533.3301    139.8784  20.6958   0.8348  21.7682   1.3664  20.1867   0.6675     1.144     1.053 -29.28  6.69      13.8162   0  0.103
        36   2014.6952    141.6452  20.3261   0.7036  20.7049   0.8373  19.7027   0.5318     1.574     1.384 -20.17  4.50     14.36959   0  0.407
        37   5636.3765    170.5368  14.9213   0.0583  14.9158   0.0582  14.8951   0.0577     2.606     2.403 -38.29  3.50     13.83422   0  0.991
        38   8108.3984    156.4132  20.6955   0.8346  21.8987   1.4511  20.9414   0.9565     1.133     0.977 -44.94  7.06      13.8563   0  0.483
        39   2272.2000    180.3836  15.0646   0.0623  15.0610   0.0622  15.0414   0.0617     2.638     2.411 -38.73  3.50     14.14607   0  0.989
        40   2951.7480    164.3155  20.3297   0.7048  20.6676   0.8230  21.1415   1.0538     1.681     1.362 -25.75  4.51       13.871   0  0.361
        41   5799.6074    188.7609  20.6740   0.8262  21.3580   1.1312  20.5763   0.8029     1.304     1.156 -16.47  5.56     13.83363   0  0.540
        42   2622.9741    198.7870  16.9441   0.1481  16.9587   0.1491  16.9292   0.1472     2.464     2.245 -33.29  3.50     13.97845   0  0.982
        43   8493.7344    200.9861  99.0000  99.0000  21.7789   1.3733  99.0000  99.0000     3.615     0.482  89.55  0.00     10.85798   2  0.074
        44   2262.6353    211.0071  18.7320   0.3375  18.7920   0.3469  18.5844   0.3161     2.193     2.001 -40.22  3.50     14.14248   0  0.973
        45   6022.6606    249.1915  14.4045   0.0460  14.3955   0.0458  14.3783   0.0454     2.639     2.451 -38.28  3.50     13.83097   0  0.998
        46   1105.3893    233.5870  19.4381   0.4673  19.5798   0.4987  19.2846   0.4376     1.970     1.778 -32.34  3.86     14.23401   0  0.908
        47   8064.6479    238.1666  19.5428   0.4909  20.9818   0.9513  19.3715   0.4556     2.102     1.324 -13.99  7.66     13.87829   0  0.001
        48   8495.0000    259.1600  18.7430   0.3393  20.8843   0.9096  99.0000  99.0000     4.880     0.289  90.00  9.59     10.67914  16  0.061
        49    492.7262    245.1183  18.6686   0.3278  18.7245   0.3363  18.7452   0.3406     2.189     1.999 -40.96  3.50     13.93334   0  0.971
        50   4466.1396    248.7405  20.1955   0.6626  20.5480   0.7789  19.9045   0.5846     1.684     1.447 -23.26  4.37     13.82349   0  0.759
        51   2621.0242    273.2524  18.6317   0.3224  18.9536   0.3737  18.5044   0.3047     2.704     2.334 -61.04  4.83     13.98887   0  0.017
        52     74.2592    297.6066  18.1437   0.2576  18.8735   0.3602  17.9309   0.2337     3.166     2.873  -4.47  6.29     13.73614   0  0.006
        53    630.5792    289.3690  19.6594   0.5178  20.2041   0.6649  19.6707   0.5239     1.969     1.810 -35.67  5.44     13.96649   0  0.066
        54   7608.6128    291.5945  20.9383   0.9332  21.7851   1.3770  21.0087   0.9881     1.123     0.966 -44.37  5.82     13.86746   0  0.598
        55   7456.8608    325.2253  17.0431   0.1550  17.0579   0.1561  17.0096   0.1527     2.429     2.207 -42.61  3.50     13.88488   0  0.983
        56   5376.6865    316.5560  18.7571   0.3414  18.8365   0.3541  18.7692   0.3444     2.163     1.941 -39.36  3.50     13.83498   0  0.968
        57     97.6380    325.3189  21.4106   1.1591  21.4566   1.1835  19.4298   0.4682     0.992     0.861 -49.04  3.64     13.84354   0  0.642
        58   5755.8608    355.4945  14.9880   0.0602  14.9829   0.0600  14.9626   0.0595     2.597     2.393 -39.46  3.50     13.83013   0  0.989
        59   2693.4565    334.6778  20.4498   0.7451  20.9809   0.9508  20.4879   0.7698     1.528     1.280 -13.08  5.00     13.99087   0  0.683
        60   6617.5879    346.8401  20.8863   0.9112  21.9685   1.4984  20.8579   0.9188     1.059     0.910 -14.10  6.53     13.83177   0  0.463
        61   1426.3806    349.7261  19.4859   0.4777  19.6331   0.5111  19.4802   0.4793     2.041     1.777 -40.05  3.64     14.31283   0  0.851
        62   6742.3750    350.6413  20.9431   0.9352  21.9137   1.4610  20.8904   0.9332     1.048     0.897 -42.96  6.18     13.81122   0  0.491
        63   2768.3540    437.8954  13.6813   0.0330  13.6640   0.0327  13.6498   0.0325     3.802     3.289 -73.36  3.50     14.00724   0  1.000
        64   6326.9136    355.0616  19.6934   0.5260  20.5409   0.7764  19.3489   0.4509     1.811     1.659 -25.28  6.41     13.84048   0  0.011
        65   2079.8186    357.2528  20.3448   0.7097  20.6898   0.8315  20.2501   0.6878     1.677     1.358 -25.31  4.34     14.13058   0  0.683
        66   3813.7329    359.0028  18.9579   0.3745  19.0197   0.3853  18.9132   0.3682     2.163     1.914 -33.93  3.50     13.84642   0  0.969
        67   5279.4966    372.7227  19.6251   0.5098  21.3617   1.1332  19.2881   0.4383     1.739     1.159 -44.43  8.09     13.82391   0  0.001
        68   2814.8994    386.4357  16.3719   0.1138  16.3790   0.1142  16.3341   0.1119     2.504     2.298 -35.66  3.50     13.98202   0  0.984
        69   5584.0811    391.1017  18.9152   0.3672  18.9877   0.3797  18.8426   0.3563     2.130     1.903 -33.81  3.50     13.82777   0  0.974
        70   6902.7505    410.3379  20.5015   0.7633  21.9058   1.4558  20.5346   0.7871     1.167     0.970 -84.02  7.48     13.81897   0  0.174
        71   5042.0962    484.2281  13.7302   0.0337  13.7185   0.0335  13.7043   0.0333     3.019     2.810 -40.60  3.50        13.85   0  1.000
        72   7391.6909    449.1475  19.7686   0.5442  19.9913   0.6027  19.8863   0.5796     1.835     1.665 -32.65  4.22     13.87711   0  0.896
        73    191.7638    457.8485  18.9981   0.3818  19.5516   0.4923  18.9467   0.3740     2.567     2.198 -13.76  5.51     13.84183   0  0.033
        74   4153.2310    459.2192  20.8869   0.9115  21.7041   1.3267  20.4563   0.7584     1.139     1.092 -46.01  5.79      13.8448   0  0.510
        75    117.0123    463.2176  19.5421   0.4907  21.0741   0.9926  19.5013   0.4841     1.968     1.395 -29.42  7.73     13.84154   0  0.002
        76   2324.2180    474.8900  18.8816   0.3617  19.2662   0.4316  18.8052   0.3502     2.472     2.202 -76.35  5.01     14.05676   0  0.021
        77   5920.6626    480.2173  19.2499   0.4285  19.3630   0.4513  19.1323   0.4076     2.186     1.786 -27.89  3.76     13.81099   3  0.966
        78   2703.3171    480.0787  21.0101   0.9646  22.0351   1.5451  21.1601   1.0634     1.051     0.855 -34.28  6.38     14.01096   0  0.537
        79   5912.1221    481.4198  19.3472   0.4481  19.4829   0.4769  19.2344   0.4275     2.091     1.774 -36.85  3.89     13.80795   3  0.953
        80   2239.0891    489.9080  20.2457   0.6785  21.4594   1.1853  20.1329   0.6508     1.335     1.209 -48.29  7.11     14.06128   0  0.006
        81   5435.1548    500.7012  19.9353   0.5877  20.1919   0.6611  19.8316   0.5649     1.790     1.568 -26.73  4.37     13.82118   0  0.811
        82   8083.9131    549.2469  17.0238   0.1538  17.4627   0.1881  17.0643   0.1567     8.090     5.934 -17.17  4.85     13.88907   0  0.000
        83   2975.2317    510.2578  19.2621   0.4311  19.6420   0.5132  19.1178   0.4049     3.100     1.841 -34.97  4.68      13.9445   0  0.000
        84    900.1862    521.1915  20.7141   0.8416  21.5103   1.2133  20.5936   0.8096     1.268     1.082 -42.71  5.74     13.95721   0  0.623
        85   2337.0647    557.4072  14.2733   0.0433  14.2647   0.0431  14.2499   0.0428     2.685     2.478 -37.78  3.50     14.04157   0  0.999
        86   2971.5562    549.9495  16.6658   0.1303  16.6751   0.1309  16.6379   0.1287     2.470     2.245 -36.23  3.50     13.95345   0  0.983
        87   4953.1904    559.1302  20.8360   0.8901  21.5104   1.2134  21.1970   1.0827     1.254     1.076 -41.25  5.14      13.8513   0  0.600
        88   4408.9209    565.3352  17.7129   0.2111  17.7407   0.2138  17.6634   0.2065     2.368     2.156 -37.19  3.50     13.86042   0  0.981
        89   7757.7676    586.3898  17.2009   0.1667  17.2174   0.1680  17.1636   0.1640     2.420     2.181 -43.38  3.50     13.89376   0  0.983
        90   6912.9448    615.1995  14.4699   0.0474  14.4607   0.0472  14.4440   0.0468     2.642     2.429 -41.80  3.50     13.86578   0  0.995
        91   8303.3799    595.6071  20.8062   0.8783  22.0410   1.5493  20.6311   0.8242     1.056     0.900 -45.41  7.21     13.83331   0  0.363
        92   7103.0508    615.5267  16.7890   0.1379  16.8004   0.1386  16.7523   0.1357     2.440     2.222 -42.21  3.50     13.85888   0  0.983
        93   7178.0674    607.8895  20.4225   0.7357  20.9519   0.9382  20.5336   0.7868     1.523     1.229 -16.01  5.26     13.86077   0  0.601
        94   5238.8145    611.3784  19.8885   0.5751  20.0886   0.6304  19.8606   0.5726     1.796     1.643 -24.47  3.90     13.83246   0  0.904
        95   6507.4355    618.6462  20.3415   0.7091  21.2400   1.0714  20.0071   0.6134     1.466     1.235  34.15  6.39     13.81597   0  0.541
        96    441.5562    623.3954  20.2352   0.6749  20.6858   0.8300  20.0580   0.6283     1.560     1.384 -17.72  5.13     13.84567   0  0.749
        97   3289.8303    657.0118  18.2862   0.2752  19.1184   0.4033  18.2579   0.2718     4.601     2.805  33.73  6.08     13.91717   0  0.000
        98    332.7393    657.0465  18.3543   0.2838  18.7315   0.3374  18.3468   0.2832     3.741     3.152   9.63  4.70     13.83014   0  0.000
        99   2049.1865    652.1960  19.2489   0.4285  19.7748   0.5456  19.1120   0.4038     2.260     1.978   3.02  5.45     14.03077   0  0.037
       100   5804.9521    656.3429  20.2424   0.6773  20.8105   0.8791  19.9313   0.5920     1.706     1.269 -33.90  5.62     13.82439   0  0.688
       101   3024.0369    681.1266  15.8500   0.0895  15.8515   0.0896  15.8199   0.0883     2.555     2.333 -36.62  3.50     13.95083   0  0.985
       102   7619.3179    675.7269  17.3992   0.1827  17.4177   0.1842  17.3765   0.1809     2.359     2.140 -37.80  3.50     13.88983   0  0.983
       103    686.4868    673.9239  19.4809   0.4766  19.6008   0.5035  19.3522   0.4516     1.933     1.801 -53.42  3.54     13.89087   0  0.855
       104   4717.2227    682.8024  17.7274   0.2125  17.7556   0.2152  17.7137   0.2114     2.343     2.115 -37.18  3.50     13.85166   0  0.982
       105   5502.5786    691.6916  20.4993   0.7621  20.8900   0.9118  20.5103   0.7781     1.461     1.333 -24.97  4.52     13.82527   0  0.691
       106   6789.4351    692.6198  19.7875   0.5493  20.3825   0.7218  19.8953   0.5820     1.810     1.729 -64.32  5.67     13.83569   0  0.122
       107   6320.5845    694.9602  19.7360   0.5364  21.3950   1.1507  19.3568   0.4525     1.451     1.272  12.44  7.99     13.82493   0  0.017
       108   4546.8550    704.6531  19.7023   0.5281  21.5796   1.2527  18.9553   0.3755     1.363     1.165 -37.19  8.26     13.88359   0  0.028
       109   6974.6304    716.8682  19.7921   0.5500  20.0018   0.6057  19.8100   0.5592     1.836     1.570 -26.84  3.83     13.86285   0  0.923
       110   2297.1731    720.1102  20.4311   0.7386  20.9762   0.9487  20.2907   0.7011     1.524     1.282 -23.36  5.00     13.99266   0  0.643
       111   2895.2002    732.1097  19.1968   0.4181  19.2887   0.4361  19.1527   0.4115     2.036     1.870 -29.06  3.50      13.9627   0  0.960
       112   7940.3760    740.4770  17.4562   0.1875  17.4762   0.1893  17.4219   0.1848     2.355     2.126 -38.08  3.50     13.93425   0  0.983
       113   4383.9893    755.5673  19.0241   0.3863  19.4126   0.4617  18.8910   0.3644     3.223     1.898 -44.97  4.67     13.89026   0  0.006
       114   1681.3323    754.3925  18.9687   0.3764  19.0578   0.3921  18.9430   0.3733     2.182     1.962 -38.38  3.58     14.02136   0  0.941
       115   7001.1660    757.3118  18.6611   0.3267  18.7228   0.3360  18.6630   0.3279     2.166     1.956 -29.64  3.50     13.85868   0  0.975
       116   2679.1477    771.2677  20.1777   0.6571  20.4590   0.7476  20.1337   0.6511     1.734     1.402 -35.66  4.13     13.98081   0  0.521
       117    884.7582    793.6624  20.6450   0.8152  21.2952   1.0989  20.4182   0.7448     1.394     1.135 -25.48  5.40     13.89404   0  0.686
       118   7898.4478    796.6162  18.4610   0.2982  19.9549   0.5928  18.3507   0.2837     3.362     2.098  27.04  7.57     13.93966   0  0.002
       119    652.0121    799.4337  20.3521   0.7125  21.6538   1.2963  20.3510   0.7214     1.410     0.958 -12.96  7.36     13.86088   0  0.402
       120   5469.9883    807.9390  19.9708   0.5973  20.2097   0.6665  19.8072   0.5585     1.741     1.523 -38.50  4.32     13.81598   0  0.893
       121   5538.4214    813.3049  19.7310   0.5350  20.1534   0.6495  19.6454   0.5178     2.005     1.724 -39.40  4.99     13.82681   0  0.115
       122   2688.0808    824.4990  19.6759   0.5217  20.2289   0.6725  19.5987   0.5066     2.018     1.728 -35.21  5.31     13.98817   0  0.081
       123   2067.1492    833.6320  18.3669   0.2854  18.7559   0.3412  18.2912   0.2760     4.354     2.534   9.43  4.96     13.99365   0  0.000
       124   5959.3594    829.3732  19.2453   0.4275  19.3624   0.4512  19.3252   0.4459     2.020     1.820 -27.13  3.60     13.82351   0  0.958
       125    238.0564    830.3168  20.2500   0.6798  21.3246   1.1139  19.8399   0.5671     1.568     1.118 -61.51  6.83     13.82659   0  0.006
       126   3783.8113    851.8790  20.5503   0.7806  21.5914   1.2595  19.9648   0.6013     1.273     1.085 -46.13  6.63     13.90901   0  0.641
       127   7824.4731    854.5031  20.8933   0.9141  21.8469   1.4168  20.5290   0.7850     1.149     0.870 -44.61  6.43     13.94112   0  0.517
       128   4603.7290    868.2763  19.9875   0.6020  20.2719   0.6859  19.7100   0.5336     1.711     1.608 -49.16  4.30     13.85853   0  0.806
       129   5748.9639    872.0528  20.2207   0.6706  20.7439   0.8525  19.7481   0.5432     1.607     1.498 -43.22  5.53      13.8309   0  0.258
       130    270.6408    878.9160  20.9092   0.9207  21.6067   1.2684  20.5942   0.8098     1.241     0.977 -72.73  5.57     13.84408   0  0.506
       131   1891.1426    879.9551  20.4370   0.7406  20.9391   0.9327  21.0318   0.9992     1.530     1.274  -9.31  4.74     14.00027   0  0.668
       132   7834.1016    883.1796  18.7859   0.3460  18.8468   0.3558  18.6782   0.3302     2.152     1.896 -38.13  3.56     13.94353   0  0.976
       133   6531.9829    910.6588  16.3139   0.1108  16.3196   0.1111  16.2948   0.1099     2.446     2.238 -36.15  3.50     13.83569   0  0.985
       134   5590.0820    900.6862  18.9164   0.3674  18.9925   0.3805  18.7126   0.3355     2.075     1.922 -30.31  3.50     13.83233   0  0.975
       135   1458.6349    903.6478  18.7947   0.3474  18.8663   0.3590  18.7206   0.3367     2.188     1.939 -35.66  3.50     13.97774   0  0.974
       136   3882.3374    904.7993  19.0563   0.3919  19.1371   0.4067  19.0925   0.4002     2.103     1.895 -27.53  3.50     13.91309   0  0.970
       137   2122.0239    910.9907  20.3073   0.6980  21.3750   1.1401  20.2560   0.6897     1.592     1.162  30.09  6.51     13.97699   0  0.016
       138   8141.5752    926.9874  18.3901   0.2885  18.8381   0.3544  18.3426   0.2827     4.010     2.550  40.92  5.08     13.84925   0  0.001
       139   5441.0913    927.5580  16.9207   0.1465  16.9323   0.1473  16.8850   0.1442     2.375     2.200 -37.37  3.50     13.82019   0  0.983
       140   6402.0845    918.0576  20.5130   0.7669  20.9626   0.9428  20.6663   0.8382     1.453     1.234 -14.78  4.63     13.83236   0  0.686
       141   2633.5911   1002.5994  13.9385   0.0371  13.9150   0.0367  13.8959   0.0364     5.334     4.645 -74.36  3.50     14.08952   0  0.072
       142   1834.2378    941.5925  18.2548   0.2712  19.0837   0.3969  18.2536   0.2713     3.813     3.525  13.64  6.04     13.98733   0  0.000
       143   2194.3313    942.7159  16.8901   0.1445  16.9024   0.1453  16.8460   0.1417     2.484     2.235 -36.40  3.50     13.96901   0  0.983
       144   1760.6581    937.5620  19.4741   0.4755  20.1984   0.6631  19.4539   0.4735     2.236     1.782 -23.56  5.95     13.99611   0  0.004
       145   7069.3242    964.9115  16.4142   0.1160  16.4189   0.1163  16.3876   0.1147     2.444     2.242 -36.37  3.50     13.86796   0  0.984
       146   1882.4728    953.2901  20.2949   0.6936  20.6490   0.8160  20.6281   0.8230     1.591     1.399 -21.78  4.39     13.98608   0  0.627
       147   7515.5547    995.5162  13.8191   0.0351  13.8077   0.0349  13.7943   0.0347     2.697     2.475 -41.22  3.50      13.9307   0  1.000
       148   8209.6738    967.2204  19.5395   0.4901  20.5416   0.7767  19.5850   0.5034     2.172     1.794 -70.94  6.50      13.8398   0  0.002
       149   8326.9570    969.0976  20.0828   0.6290  20.3449   0.7094  19.9304   0.5917     1.711     1.490 -34.56  4.17     13.81328   0  0.800
       150   4431.5610    974.1388  20.4111   0.7322  21.9741   1.5023  20.2531   0.6888     1.134     0.998 -74.68  8.13     13.87086   0  0.184
       151   3304.3396    980.8899  20.5883   0.7940  21.0714   0.9912  20.5748   0.8023     1.421     1.175 -21.98  4.69     13.93608   0  0.651
       152   1799.8759   1003.2464  17.4701   0.1887  17.4929   0.1907  17.4541   0.1875     2.384     2.165 -35.14  3.50     13.96183   0  0.983
       153   3160.0571   1008.1093  20.2843   0.6906  21.4814   1.1973  19.8109   0.5595     1.452     1.117 -40.68  6.92      13.9522   0  0.059
       154   6405.3208   1013.2491  19.4418   0.4684  19.9822   0.6003  19.4813   0.4796     2.396     1.963 -70.57  5.07     13.83936   0  0.000
       155   4916.1631   1012.9443  20.3269   0.7042  21.0741   0.9926  20.1461   0.6549     1.673     1.219   9.15  5.64     13.84332   0  0.399
       156    474.0838   1015.7221  19.7017   0.5276  19.8599   0.5673  19.5413   0.4932     1.922     1.686 -28.77  3.78     13.84949   0  0.895
       157   5025.6255   1022.5172  19.7398   0.5374  20.5453   0.7780  19.6425   0.5171     1.930     1.845 -87.70  5.78     13.84344   0  0.001
       158   3169.0383   1027.6084  20.2633   0.6836  20.5737   0.7882  19.6033   0.5077     1.643     1.390 -24.28  4.62     13.95368   0  0.747
       159    330.2378   1033.1050  19.2461   0.4282  20.7636   0.8604  19.2057   0.4218     3.072     1.305  -4.49  7.57     13.83852   0  0.001
       160   5457.7383   1062.2139  17.1952   0.1663  17.2112   0.1675  17.1462   0.1627     2.367     2.166 -36.93  3.50     13.84648   0  0.983
       161   8437.3643   1053.5103  20.4940   0.7600  20.8850   0.9097  99.0000  99.0000     1.536     1.300 -39.29  3.50     13.81687   0  0.520
       162   7836.2026   1085.2645  14.9793   0.0599  14.9734   0.0598  14.9526   0.0592     2.595     2.364 -42.18  3.50     13.96367   0  0.988
       163   7163.6108   1065.2987  17.4920   0.1906  17.5137   0.1925  17.4542   0.1875     2.326     2.096 -35.83  3.50      13.8939   0  0.983
       164   5652.3540   1065.3088  19.7778   0.5468  20.4318   0.7384  19.7580   0.5458     2.030     1.809  10.90  5.35     13.85341   0  0.001
       165   2123.6892   1074.9224  18.6461   0.3246  19.1038   0.4005  18.3916   0.2892     2.859     2.367   1.18  5.38     13.95114   0  0.011
       166   8083.3389   1078.4752  18.2957   0.2760  18.3366   0.2813  18.2561   0.2716     2.280     2.012 -43.75  3.50      13.8689   0  0.980
       167   5302.1011   1083.4172  20.7309   0.8482  21.5081   1.2121  20.3477   0.7203     1.231     0.983 -16.31  6.11     13.84757   0  0.610
       168   3042.2395   1087.5077  19.8557   0.5664  20.0568   0.6212  19.8250   0.5632     1.886     1.606 -34.21  3.51     13.95601   0  0.772
       169   3527.2900   1105.7688  19.8770   0.5723  20.5357   0.7746  19.8994   0.5831     2.014     1.599  22.12  5.25     13.95212   0  0.001
       170   3867.2771   1146.9324  14.2117   0.0421  14.2016   0.0419  14.1869   0.0416     2.661     2.442 -35.29  3.50     13.94797   0  0.999
       171   5978.1982   1139.1912  20.8017   0.8761  21.3536   1.1288  20.5273   0.7844     1.248     1.072 -39.95  5.15     13.85369   0  0.654
       172   8501.2744   1690.9832  13.6623   0.0327  12.7430   0.0214  16.4767   0.1195   429.129    17.830 -89.32  3.50     9.500896  48  0.000
       173   8099.2036   1164.4917  18.9832   0.3789  19.0571   0.3920  18.9472   0.3741     2.121     1.855 -45.95  3.50     13.88556   0  0.976
       174   8298.1953   1181.8975  16.3148   0.1109  16.3204   0.1111  16.2878   0.1095     2.482     2.240 -40.34  3.50     13.86295   0  0.984
       175   6112.2656   1170.0609  18.7851   0.3458  18.8443   0.3554  18.7293   0.3381     2.093     1.894 -35.76  3.50     13.85865   0  0.973
       176   1466.6823   1184.8821  20.1197   0.6398  20.4439   0.7425  20.0863   0.6367     1.632     1.550 -43.18  4.43     13.90104   0  0.761
       177   2799.1995   1186.9053  19.0048   0.3827  19.0844   0.3969  18.9865   0.3810     2.071     1.877 -27.98  3.50     13.96679   0  0.968
       178   6643.2471   1187.6968  20.3756   0.7198  20.6885   0.8310  20.0075   0.6135     1.590     1.338 -34.08  4.07     13.85707   0  0.736
       179   8213.3525   1190.7472  20.5442   0.7781  21.0292   0.9721  20.5095   0.7778     1.433     1.209 -32.58  5.02     13.86724   0  0.662
       180   1971.6570   1211.9910  16.4932   0.1203  16.5013   0.1208  16.4675   0.1190     2.507     2.271 -40.25  3.50     13.92936   0  0.984
       181   5531.4243   1208.1744  19.3057   0.4399  19.7809   0.5471  19.0452   0.3915     2.260     1.847  89.59  5.42     13.87435   0  0.147
       182   6680.0894   1212.8467  20.6361   0.8117  21.2182   1.0606  20.2763   0.6964     1.312     1.180 -41.84  4.98      13.8617   0  0.681
       183   3504.3464   1414.4298  14.2019   0.0419  14.2668   0.0432  14.3528   0.0449    12.355    10.223 -85.40  3.92     14.23635   0  0.029
       184   7819.3076   1246.8752  19.3694   0.4531  20.4675   0.7506  19.2329   0.4272     2.007     1.612 -27.74  7.11     13.96204   0  0.020
       185   7547.4600   1250.1515  18.9617   0.3752  19.0238   0.3860  18.9363   0.3722     2.102     1.893 -31.97  3.50     13.92256   0  0.973
       186    247.1559   1256.2975  20.4557   0.7474  21.6157   1.2737  20.4451   0.7543     1.404     1.001  -3.14  6.90     13.82526   0  0.324
       187   6839.3823   1258.4636  20.4514   0.7458  21.2161   1.0596  19.9764   0.6046     1.402     1.283  27.89  5.76     13.88041   0  0.229
       188   1108.8502   1270.3309  18.3344   0.2810  18.3781   0.2867  18.3064   0.2780     2.322     2.052 -45.87  3.50     13.87897   0  0.974
       189   3019.3687   1279.4647  20.5032   0.7638  22.0840   1.5803  20.2421   0.6852     1.210     0.803 -50.68  7.85     13.95395   0  0.502
       190   4125.1187   1283.5551  19.8002   0.5526  21.1309   1.0188  19.5764   0.5013     1.499     1.405 -14.10  7.48     13.91341   0  0.090
       191   3170.3882   1296.0538  16.8184   0.1398  16.8279   0.1404  16.7755   0.1371     2.456     2.205 -34.06  3.50     13.97099   0  0.983
       192   5134.1201   1327.0642  14.7324   0.0535  14.7247   0.0533  14.7048   0.0528     2.584     2.376 -35.94  3.50     13.87973   0  0.997
       193    907.4698   1317.9786  19.8486   0.5647  20.0884   0.6303  19.6905   0.5288     1.864     1.572 -31.50  4.39     13.83899   0  0.852
       194   4567.3828   1322.5245  18.0535   0.2469  18.0843   0.2504  18.0031   0.2416     2.254     2.023 -27.44  3.50     13.88472   0  0.981
       195   1147.5950   1328.6509  20.2869   0.6911  20.6924   0.8325  20.2872   0.7000     1.500     1.386 -26.71  4.90     13.87456   0  0.731
       196   4717.8564   1333.5002  19.4666   0.4734  19.6003   0.5034  19.5383   0.4925     1.981     1.725 -33.06  3.75     13.88137   0  0.945
       197   6447.1753   1344.4169  20.8312   0.8882  21.5713   1.2479  21.1481   1.0572     1.240     0.979 -16.88  5.70     13.85688   0  0.506
       198   7278.7046   1344.8241  19.2658   0.4316  19.3635   0.4514  19.2280   0.4262     2.014     1.769 -33.94  3.55     13.90717   0  0.967
       199   8377.8184   1366.5311  19.7412   0.5374  19.9415   0.5891  19.2570   0.4320     1.887     1.654 -40.48  4.25     13.82442   0  0.915
       200   7768.2773   1374.8228  19.8320   0.5608  21.0664   0.9890  19.8208   0.5621     1.999     1.173 -55.75  7.18      13.9533   0  0.005
       201   1286.3157   1387.8549  20.4982   0.7620  21.1462   1.0260  20.4238   0.7468     1.423     1.174 -22.50  5.65     13.86375   0  0.693
       202   2104.7771   1393.9321  19.0217   0.3857  19.1025   0.4003  18.9769   0.3793     2.131     1.856 -28.11  3.54     13.90282   0  0.968
       203   8250.4131   1419.7012  14.9715   0.0597  14.9655   0.0595  14.9450   0.0590     2.576     2.349 -41.29  3.50     13.87192   0  0.986
       204    911.2563   1409.8784  17.7799   0.2177  17.8052   0.2202  17.7488   0.2148     2.334     2.136 -31.06  3.50      13.8321   0  0.981
       205   2153.6445   1417.6898  19.3342   0.4454  19.4441   0.4685  19.3981   0.4613     2.054     1.804 -30.72  3.50     13.90481   0  0.958
       206   2078.0391   1429.5339  16.5158   0.1216  16.5229   0.1220  16.4866   0.1200     2.504     2.251 -35.26  3.50     13.89577   0  0.984
       207   1949.3038   1452.7990  17.5409   0.1951  18.1052   0.2529  17.4674   0.1887     3.811     3.747 -29.89  5.88     13.88778   0  0.013
       208   2184.6106   1455.9241  19.1712   0.4134  19.7052   0.5284  19.0000   0.3833     2.268     2.068  12.94  5.49     13.89679   0  0.096
       209   1040.5084   1467.0009  21.0247   0.9709  21.8434   1.4145  20.3776   0.7306     1.080     0.958 -43.00  5.51     13.83426   0  0.498
       210    941.3923   1482.3879  16.5096   0.1213  16.5169   0.1217  16.4773   0.1195     2.490     2.269 -38.17  3.50     13.83202   0  0.983
       211   7938.5054   1473.9740  20.2139   0.6686  21.7773   1.3722  19.8804   0.5780     1.365     0.975 -66.46  7.89     13.91693   0  0.177
       212   4017.5735   1492.1292  20.9725   0.9480  21.9098   1.4584  20.2975   0.7034     1.056     0.909   9.45  6.26     13.92025   0  0.498
       213    628.5331   1494.1996  20.4454   0.7435  20.9475   0.9363  20.5364   0.7878     1.412     1.364 -10.19  5.01     13.82675   0  0.682
       214   7398.3374   1523.7866  14.6282   0.0510  14.6206   0.0508  14.6019   0.0504     2.598     2.383 -40.81  3.50     13.92898   0  0.997
       215   1586.3987   1506.5068  20.4270   0.7372  20.8962   0.9144  20.4098   0.7418     1.545     1.290 -40.10  4.74     13.86284   0  0.678
       216   3236.1780   1513.8744  20.5346   0.7745  20.9370   0.9317  20.4648   0.7614     1.468     1.224 -21.44  4.26     13.98731   0  0.691
       217   7358.8540   1541.4520  16.2919   0.1097  16.2965   0.1099  16.2601   0.1081     2.468     2.239 -37.85  3.50     13.92146   0  0.985
       218   6171.1118   1529.6890  19.9477   0.5909  20.1152   0.6381  19.9995   0.6112     1.684     1.566 -28.50  3.68     13.87905   0  0.905
       219    670.4138   1538.2935  20.2553   0.6811  20.6489   0.8160  20.1782   0.6649     1.679     1.381 -21.14  4.55      13.8312   0  0.418
       220   5992.6943   1546.5895  19.6253   0.5094  19.7808   0.5471  19.4920   0.4820     1.900     1.678 -38.52  3.83     13.86377   0  0.946
       221   2161.8176   1555.6544  20.6679   0.8239  21.3185   1.1107  20.5030   0.7754     1.316     1.142 -38.18  5.59     13.88813   0  0.646
       222   3108.6938   1565.4938  18.4967   0.3028  18.5418   0.3092  18.4357   0.2951     2.182     1.973 -29.19  3.50     13.96422   0  0.977
       223   8438.1436   1572.7386  20.8293   0.8869  21.0963   1.0027  99.0000  99.0000     1.304     1.095 -33.13  3.50      13.8136   0  0.519
       224   5216.6436   1581.0005  19.8528   0.5660  21.8837   1.4411  19.7081   0.5332     1.161     1.117 -89.75  8.64     13.86544   0  0.068
       225   4331.4058   1598.3298  16.6160   0.1273  16.6247   0.1279  16.5790   0.1252     2.443     2.204 -34.41  3.50     13.90951   0  0.983
       226   2865.7317   1602.8834  17.8702   0.2269  17.8997   0.2300  17.8650   0.2267     2.370     2.079 -35.38  3.50     13.93883   0  0.981
       227   7179.7710   1600.9108  19.6589   0.5178  20.4035   0.7289  19.4556   0.4739     1.762     1.338 -48.02  7.64     13.90972   2  0.007
       228    473.2995   1615.3424  20.4947   0.7607  21.0553   0.9839  19.8844   0.5791     1.553     1.219 -41.42  5.24     13.84254   0  0.683
       229   8405.4082   1625.0436  20.4454   0.7435  20.9609   0.9421  21.3763   1.1822     1.492     1.235 -15.49  5.10     13.81388   0  0.634
       230   4067.8645   1627.2979  20.2346   0.6748  20.8521   0.8961  20.1481   0.6555     1.539     1.454   1.54  5.55     13.92542   0  0.369
       231   2100.0100   1627.2018  20.0773   0.6274  20.3630   0.7153  20.0133   0.6152     1.737     1.450 -33.12  4.22     13.86877   0  0.795
       232    460.6018   1669.4816  13.6532   0.0325  13.6411   0.0324  13.6274   0.0322     3.081     2.866 -43.32  3.50     13.84956   0  1.000
       233   7793.3105   1643.9652  16.7944   0.1383  16.8043   0.1389  16.7607   0.1362     2.398     2.190 -38.12  3.50     13.90266   0  0.983
       234   7274.6396   1642.9661  18.9816   0.3786  19.0835   0.3968  18.8020   0.3497     2.135     1.857 -39.99  3.76      13.9079   0  0.974
       235   1780.3246   1646.0508  19.3368   0.4464  20.0231   0.6117  19.3365   0.4483     2.648     2.116 -49.42  5.48     13.84459   0  0.004
       236   6152.1167   1647.9781  19.5931   0.5018  19.7258   0.5334  19.6601   0.5213     1.930     1.663 -17.43  3.50     13.87601   0  0.956
       237   8104.2095   1667.4257  18.1386   0.2568  18.1756   0.2612  18.0832   0.2507     2.268     2.006 -37.85  3.50     13.89019   0  0.980
       238   6870.4458   1669.0858  19.9163   0.5826  20.1286   0.6421  19.4729   0.4777     1.813     1.559 -19.96  4.36     13.89536   0  0.906
       239   3279.2793   1671.1311  19.9503   0.5917  20.2053   0.6652  19.8760   0.5768     1.804     1.568 -25.03  3.88     13.96691   0  0.858
       240   3256.4519   1674.0326  18.8002   0.3483  18.8629   0.3584  18.6822   0.3308     2.160     1.908 -33.09  3.50     13.96426   0  0.975
       241   6070.6934   1706.0505  15.5471   0.0778  15.5451   0.0778  15.5193   0.0769     2.496     2.282 -35.43  3.50     13.88054   0  0.989
       242   5936.8452   1689.4310  19.4430   0.4683  19.5776   0.4982  19.3349   0.4479     1.926     1.704 -22.01  3.70     13.87276   0  0.969
       243   4008.9985   1701.3005  20.1761   0.6569  22.1864   1.6567  19.7144   0.5347     1.246     0.775 -89.99  8.65     13.92274   0  0.099
       244   5731.3379   1703.5375  20.4433   0.7431  21.9780   1.5051  19.9345   0.5928     1.263     0.891 -31.81  7.73     13.88506   0  0.056
       245   1604.3618   1708.3502  20.6800   0.8284  21.3837   1.1446  20.5979   0.8112     1.318     1.096  -2.77  5.39      13.8423   0  0.693
       246   5797.1670   1718.3784  17.6489   0.2049  17.6706   0.2070  17.5687   0.1977     2.296     2.094 -29.66  3.50     13.88834   0  0.982
       247   8087.2822   1741.5970  15.4074   0.0730  15.4047   0.0729  15.3829   0.0722     2.544     2.301 -40.48  3.50     13.90534   0  0.986
       248   6441.0864   1743.2778  19.6932   0.5260  21.0567   0.9847  19.5554   0.4964     1.889     1.238  34.48  7.56     13.87094   0  0.001
       249   1137.6780   1784.0522  13.6824   0.0330  13.6705   0.0328  13.6573   0.0326     2.985     2.757 -36.69  3.50     13.85265   0  1.000
       250   1655.7255   1752.8665  20.6033   0.7999  22.0282   1.5403  20.6693   0.8394     1.188     0.898  -3.43  7.40     13.84403   0  0.327
       251   4315.8457   1771.0552  16.4354   0.1172  16.4410   0.1175  16.8786   0.1438     2.427     2.214 -31.92  3.50     13.92814   0  0.983
       252   1335.4962   1766.1174  20.0997   0.6338  20.3135   0.6992  20.0827   0.6356     1.763     1.521 -35.84  3.90     13.83145   0  0.762
       253   1300.8881   1774.6757  18.3423   0.2820  18.3831   0.2874  18.2950   0.2765     2.237     2.033 -32.31  3.50     13.83138   0  0.977
       254   1629.7977   1788.3156  15.8850   0.0909  15.8863   0.0910  15.8576   0.0898     2.520     2.301 -35.72  3.50     13.84734   0  0.985
       255   1452.0596   1782.5120  19.5371   0.4891  19.6532   0.5158  19.5306   0.4907     1.923     1.753 -25.17  3.67     13.84272   0  0.930
       256   2304.1401   1793.7338  20.6834   0.8296  21.1878   1.0459  20.5402   0.7892     1.370     1.175 -54.87  4.87     13.86515   0  0.658
       257   1509.9542   1811.2009  18.4845   0.3011  18.5317   0.3077  18.4691   0.2997     2.223     2.002 -30.20  3.50     13.84356   0  0.978
       258   1700.7450   1813.3857  20.4358   0.7405  21.4817   1.1975  20.2831   0.6986     1.315     1.178  74.84  6.47      13.8347   0  0.107
       259   6860.9624   1821.7322  20.2009   0.6646  21.5885   1.2579  19.9703   0.6029     1.381     1.073 -42.42  7.40     13.91197   0  0.020
       260   2724.6023   1837.7417  16.8738   0.1434  16.8849   0.1441  16.8462   0.1417     2.462     2.182 -35.93  3.50      13.9245   0  0.983
       261   4962.1094   1863.4274  14.5459   0.0491  14.5373   0.0489  14.5197   0.0485     2.608     2.371 -32.77  3.50     13.89561   0  0.991
       262   7855.8027   1843.3525  18.9621   0.3752  19.0240   0.3860  18.9183   0.3691     2.087     1.869 -29.45  3.50     13.90038   0  0.969
       263   4195.8423   2074.8113  14.4957   0.0480  14.1629   0.0412  14.8735   0.0571    22.698    19.350   8.53  3.50     1.305061   0  0.000
       264   3149.2969   1847.3295  19.5272   0.4873  21.2486   1.0757  19.4842   0.4802     2.164     1.090 -54.51  8.11     14.00054   0  0.004
       265   2968.0410   1936.9838  14.0661   0.0394  14.0442   0.0390  14.0251   0.0386     5.848     5.204 -74.03  3.50     14.09607   0  0.034
       266   4323.1797   2076.3059  14.7508   0.0540  14.3742   0.0454  14.9296   0.0586    20.049    19.039 -55.26  3.50      1.48839   0  0.000
       267   1692.0708   1869.2549  18.2518   0.2705  18.2946   0.2759  18.2087   0.2657     2.297     2.046 -38.58  3.50      13.8345   0  0.979
       268    442.7617   1888.0522  17.6323   0.2036  18.3565   0.2839  17.6907   0.2091     6.310     3.201 -37.91  6.16     13.82448   2  0.000
       269   6028.8867   1867.5898  19.8940   0.5769  21.8914   1.4463  19.8451   0.5685     1.276     1.000 -15.73  8.67       13.884   0  0.174
       270   6961.8662   1868.2795  19.3846   0.4562  19.9606   0.5943  19.1465   0.4103     2.240     1.867  41.36  5.57     13.91644   0  0.085
       271   3535.6504   1876.9568  20.7835   0.8688  21.3230   1.1131  20.8342   0.9084     1.367     1.079 -33.77  4.97     13.98636   0  0.662
       272    430.7205   1906.0291  18.0577   0.2475  18.5122   0.3050  17.8167   0.2217     3.654     2.900 -87.28  5.51     13.82486   3  0.021
       273   6978.9512   1886.5247  18.7417   0.3390  18.8136   0.3504  18.5774   0.3151     2.178     1.934 -33.13  3.52     13.91692   0  0.974
       274   3672.2439   1909.8518  15.0640   0.0623  15.0590   0.0622  15.0385   0.0616     2.574     2.323 -32.19  3.50      14.0067   0  0.991
       275   7614.9673   1919.7769  15.0921   0.0631  15.0864   0.0630  15.0602   0.0622     2.521     2.316 -34.64  3.50     13.90117   0  0.997
       276   6229.9136   1906.2556  18.1641   0.2598  18.1991   0.2640  18.1257   0.2557     2.255     2.001 -37.89  3.50     13.89561   0  0.981
       277   2157.0547   1908.7030  19.6250   0.5098  20.7709   0.8632  19.6548   0.5200     2.892     1.076 -12.77  6.97      13.8523   0  0.001
       278   5231.7358   1913.6731  18.2605   0.2716  18.2983   0.2764  18.2209   0.2672     2.257     1.982 -31.86  3.50     13.90469   0  0.978
       279   7630.1221   1923.8612  20.1198   0.6402  21.0242   0.9700  19.1586   0.4127     1.584     1.245   4.77  6.47      13.9018   1  0.411
       280   7826.2124   1924.9298  20.2560   0.6816  21.1263   1.0167  19.7855   0.5528     1.654     1.166 -24.61  6.21     13.89575   0  0.172
       281   1211.7704   1928.3236  20.3958   0.7269  21.2485   1.0756  19.7855   0.5528     1.476     1.225 -57.56  6.03     13.82884   0  0.308
       282   5459.4551   1976.0389  17.4285   0.1853  17.9914   0.2400  17.4432   0.1866     7.306     3.483  33.67  5.31     13.90101   0  0.000
       283   2540.7915   1944.2822  19.7782   0.5471  21.3218   1.1125  19.5125   0.4866     1.746     1.265  14.37  7.81     13.89143   0  0.015
       284   6032.8755   1949.4558  18.6099   0.3190  18.6645   0.3271  18.5898   0.3169     2.185     1.926 -35.01  3.50     13.88447   0  0.975
       285   6725.3896   1969.0089  20.2673   0.6853  21.5420   1.2313  20.2181   0.6775     1.680     1.020  39.12  7.05     13.90451   0  0.145
       286   5029.4697   1989.6017  17.1638   0.1639  17.1794   0.1651  17.1239   0.1610     2.336     2.129 -28.46  3.50     13.90487   0  0.983
       287   4198.6465   2217.3555  14.5676   0.0496  14.1934   0.0417  14.9208   0.0583    23.897    18.197  -1.80  3.50     1.734178   0  0.001
       288   1535.0500   2002.1080  20.6862   0.8308  21.3836   1.1446  20.3958   0.7369     1.250     1.138 -24.77  5.50     13.83411   0  0.682
       289   5263.5312   2005.3153  20.0019   0.6059  20.1642   0.6527  20.2965   0.7031     1.791     1.468 -10.58  3.82     13.91139   0  0.919
       290   4765.4619   2009.7009  19.7818   0.5479  20.5504   0.7798  19.5088   0.4858     1.896     1.545 -27.58  6.14      13.9099   0  0.127
       291   4323.6997   2217.1387  14.9970   0.0605  14.5737   0.0497  15.0287   0.0613    19.140    17.489  10.13  3.50     2.297402   0  0.000
       292   7775.6553   2024.1366  20.4183   0.7346  21.2620   1.0822  20.7957   0.8917     1.456     1.174 -19.79  6.27     13.89225   0  0.636
       293    424.1894   2114.2988  13.1632   0.0260  12.7682   0.0217  15.8250   0.0885   244.306     9.552  -0.14  3.50      6.70641  16  0.000
       294   4729.5981   2052.2805  16.4300   0.1169  16.4362   0.1172  16.4080   0.1158     2.459     2.200 -32.06  3.50     13.91766   0  0.983
       295   3955.1587   2064.4277  19.1244   0.4044  19.1925   0.4172  18.9463   0.3739     2.018     1.805 -29.18  3.50     13.97365   0  0.970
       296   4628.4829   2083.1030  17.2846   0.1733  17.3004   0.1745  18.6194   0.3213     2.364     2.119 -32.19  3.50     13.90295   0  0.983
       297   2358.3755   2095.5181  19.8675   0.5695  20.7039   0.8370  99.0000  99.0000     3.884     0.958 -65.46  3.50     13.82038   0  0.001
       298   3858.1726   2088.7981  19.2586   0.4309  20.1034   0.6348  99.0000  99.0000     3.159     1.850 -25.77  6.86     14.03118   0  0.003
       299   7586.1030   2101.5627  20.5162   0.7679  21.4037   1.1553  99.0000  99.0000     1.514     1.213 -81.95  3.96     13.82774   0  0.053
       300   8512.8799   2214.7712  99.0000  99.0000  16.5510   0.1236  17.3034   0.1749    13.644     8.281  69.43  0.00     7.164429  16  0.000
       301    463.4992   2230.6030  12.4035   0.0183  12.3428   0.0178  15.4596   0.0748   250.410    12.071  -0.47  3.50     4.795406  24  0.000
       302    377.1842   2175.7600  99.0000  99.0000  14.2136   0.0421  16.7501   0.1355   220.732     7.778  -0.02  0.00   0.03047492  16  0.001
       303   7570.3486   2196.3914  20.6110   0.8021  20.5766   0.7892  99.0000  99.0000     1.639     1.232 -27.13  3.50     13.70665   0  0.760
       304   2671.7939   2198.5115  18.6050   0.3183  18.5697   0.3132  99.0000  99.0000     2.236     1.894 -17.89  3.50     13.76421   0  0.977
       305   2356.5100   2199.7893  20.4097   0.7310  20.9329   0.9300  99.0000  99.0000     1.502     1.304   2.33  3.50     13.68872   0  0.529
       306   7780.8052   2212.9387  20.2261   0.6723  21.7910   1.3809  99.0000  99.0000     1.258     1.031  27.04  7.81     13.74745   0  0.006
       307   4796.5205   2218.9990  20.4828   0.7566  22.2252   1.6866  19.6325   0.5146     1.096     0.809   0.36  8.11     13.75245   0  0.228
       308   6856.7148   2230.0271  16.8256   0.1403  16.8362   0.1409  16.7351   0.1346     2.394     2.178 -32.50  3.50     13.81454   0  0.983
       309   5999.0430   2229.6338  18.3556   0.2838  18.5394   0.3088  18.1012   0.2528     3.266     2.107  -7.16  4.38     13.79145   0  0.212
       310   5295.7549   2244.1750  18.1315   0.2559  18.1661   0.2600  17.9479   0.2355     2.251     2.013 -27.60  3.50     13.82651   0  0.981
       311   8195.5039   2250.7075  17.7187   0.2116  17.7454   0.2142  17.5766   0.1984     2.284     2.067 -32.10  3.50     13.74438   0  0.982
       312   2811.1179   2271.4233  18.2328   0.2682  18.2792   0.2739  18.1720   0.2612     2.273     2.007 -25.87  3.50     13.93026   0  0.979
       313   7601.6558   2270.1401  19.5372   0.4891  19.6336   0.5112  19.3642   0.4541     1.886     1.734 -34.77  3.51     13.87559   0  0.961
       314   7317.5088   2291.0029  20.1420   0.6466  22.2502   1.7060  19.9828   0.6064     1.102     0.809  -0.25  8.67     13.89497   0  0.136
       315   1973.3418   2296.8367  18.6047   0.3183  18.6607   0.3266  18.5503   0.3112     2.208     1.949 -34.77  3.50      13.8696   0  0.977
       316   5860.1807   2320.6899  19.2379   0.4261  19.3105   0.4405  19.2782   0.4363     2.030     1.798 -34.53  3.50     13.90141   0  0.963
       317   3701.5000   2337.7126  19.8933   0.5768  21.5472   1.2342  19.7060   0.5327     1.408     1.184   0.26  8.01     14.02287   0  0.009
       318   6726.1182   2339.5852  19.9321   0.5872  21.0214   0.9688  19.9899   0.6085     1.953     1.279  34.79  6.62     13.91015   0  0.001
       319   1011.3596   2344.4556  20.2179   0.6694  20.6023   0.7986  19.8020   0.5571     1.682     1.429 -25.79  4.43     13.88767   0  0.619
       320    769.9504   2397.5645  13.7023   0.0333  13.6900   0.0331  13.6744   0.0329     3.276     3.042 -40.18  3.50     13.93273   0  1.000
       321   7581.1738   2366.1548  20.3396   0.7085  21.0243   0.9701  19.4838   0.4801     1.277     1.097 -44.75  7.28     13.88512   0  0.151
       322   7119.0854   2376.7622  19.1890   0.4166  19.2654   0.4314  19.1529   0.4116     2.058     1.802 -36.58  3.50      13.8936   0  0.974
       323   4669.2720   2384.8740  17.6016   0.2005  17.6243   0.2026  17.5483   0.1958     2.332     2.091 -29.72  3.50     13.91353   0  0.982
       324   7381.2271   2379.7151  20.6703   0.8247  21.3437   1.1237  20.8776   0.9275     1.437     1.114 -28.31  5.24     13.87826   0  0.645
       325   5679.3677   2381.6345  18.2873   0.2750  18.3276   0.2801  18.2198   0.2671     2.206     1.997 -30.78  3.50     13.89643   0  0.979
       326   4880.2041   2380.3948  19.5018   0.4812  19.6392   0.5125  19.3520   0.4515     1.960     1.713 -11.06  3.76     13.91059   0  0.948
       327   6743.1260   2398.6724  18.3448   0.2824  18.3843   0.2875  18.2889   0.2757     2.225     1.983 -35.29  3.50     13.89398   0  0.979
       328   5652.5918   2401.8042  20.2770   0.6879  20.6098   0.8014  20.0538   0.6270     1.547     1.415 -64.20  4.38     13.89534   0  0.732
       329    610.2993   2491.4338  13.7698   0.0343  13.7450   0.0339  13.7290   0.0337     5.090     4.359 -72.46  3.50     14.00414   0  0.935
       330    388.4934   2413.6633  19.0627   0.3932  19.5012   0.4810  19.1026   0.4021     2.581     2.038  -5.82  5.11     13.86849   0  0.026
       331   1043.9102   2530.7024  14.1777   0.0414  14.1568   0.0410  14.1389   0.0407     6.193     4.655 -79.68  3.50     13.95007   0  0.050
       332   4978.2822   2434.7366  17.8862   0.2286  17.9186   0.2320  17.8565   0.2258     2.296     2.035 -33.76  3.50     13.90827   0  0.982
       333   2487.0288   2435.3191  19.7432   0.5383  21.0323   0.9737  19.5301   0.4906     1.788     1.478   4.77  7.12     13.90274   0  0.001
       334   6327.7222   2439.6157  20.4449   0.7432  20.8146   0.8807  20.7943   0.8911     1.503     1.338 -37.85  4.30     13.91155   0  0.660
       335   1754.0951   2441.2871  20.6973   0.8353  21.7544   1.3577  19.9840   0.6068     1.296     0.910 -19.77  6.56     13.87279   0  0.637
       336   1391.5101   2484.7793  17.9940   0.2405  18.5047   0.3040  18.0195   0.2435     7.920     2.501 -25.31  4.92      13.8609   0  0.000
       337   4320.8740   2492.8206  19.9810   0.6006  21.6495   1.2938  99.0000  99.0000     1.836     0.875  12.06  7.93     13.90825   0  0.042
       338   6070.8047   2511.7786  15.4582   0.0747  15.4548   0.0746  15.4296   0.0738     2.492     2.286 -32.86  3.50     13.92514   0  0.984
       339   6976.9727   2519.2329  20.7370   0.8506  21.5295   1.2241  20.5177   0.7808     1.244     1.110  -3.41  5.88     13.87953   0  0.615
       340   3770.4658   2536.8088  17.7730   0.2170  17.7996   0.2197  17.7295   0.2129     2.303     2.055 -29.82  3.50     13.98421   0  0.982
       341    155.0520   2579.9749  14.0743   0.0395  14.0642   0.0393  14.0494   0.0391     2.712     2.505 -40.52  3.50     13.85394   0  0.999
       342   3802.3123   2558.7615  18.2008   0.2642  18.2844   0.2746  17.8978   0.2301     2.264     2.032 -30.93  3.97     13.98289   0  0.980
       343    692.1585   2559.7104  19.4269   0.4653  20.5395   0.7760  19.1802   0.4168     2.373     1.586  68.51  6.79     13.90835   0  0.001
       344   5350.4990   2563.0959  19.3333   0.4452  19.4416   0.4679  19.2926   0.4392     2.012     1.746 -29.00  3.50     13.91108   0  0.963
       345   3804.2441   2575.4348  18.1432   0.2574  18.4857   0.3013  17.9203   0.2325     2.973     2.722  20.66  5.01      13.9801   0  0.085
       346     78.4736   2566.7112  19.7039   0.5282  19.8725   0.5707  19.6501   0.5189     1.891     1.700 -33.90  3.79     13.84263   0  0.906
       347   6070.6597   2577.4006  19.6212   0.5084  19.7414   0.5372  19.6518   0.5193     1.855     1.689 -35.58  3.63      13.9206   0  0.937
       348   7796.1147   2581.2058  19.9445   0.5906  21.1232   1.0153  19.7824   0.5520     1.798     1.292 -69.25  6.86     13.86815   0  0.001
       349   2035.4891   2597.3386  15.7695   0.0862  15.7695   0.0862  15.7410   0.0851     2.525     2.282 -32.96  3.50     13.86657   0  0.985
       350   6901.8818   2584.6357  20.3545   0.7133  21.5644   1.2440  19.9583   0.5995     1.349     1.167 -37.82  6.85        13.87   0  0.011
       351   2124.7229   2600.1243  19.7470   0.5391  20.2868   0.6907  19.5417   0.4933     2.083     1.684 -17.98  5.21     13.86948   0  0.017
       352   5685.8755   2603.2812  19.8166   0.5563  19.9525   0.5921  19.6402   0.5165     1.821     1.620 -34.29  3.50     13.91321   0  0.943
       353   1340.6722   2605.9253  20.2896   0.6923  22.0560   1.5601  20.4063   0.7406     1.480     0.753  -5.84  8.31     13.86091   0  0.366
       354   1180.0300   2630.4429  15.1556   0.0650  15.1514   0.0649  15.1287   0.0642     2.606     2.372 -36.13  3.50     13.90379   0  0.986
       355   3215.3909   2645.0012  18.0956   0.2517  18.1342   0.2562  18.0036   0.2417     2.240     2.014 -23.01  3.50     13.93313   0  0.981
       356   2596.5408   2651.7583  18.8556   0.3576  20.2020   0.6642  18.5072   0.3051     2.302     1.843  -6.76  7.65     13.88576   0  0.000
       357   1730.2324   2658.8386  19.4675   0.4739  20.1116   0.6371  19.1195   0.4052     2.070     1.692 -11.75  5.88      13.8639   0  0.140
       358    146.0381   2661.8296  20.0233   0.6125  21.1926   1.0482  19.9313   0.5919     1.900     1.128  28.58  7.02     13.83357   0  0.005
       359   3233.1721   2662.0369  19.0291   0.3870  19.1094   0.4015  18.8336   0.3549     2.033     1.836 -30.21  3.50     13.93186   0  0.972
       360   2568.0503   2661.8042  19.3336   0.4453  19.4498   0.4697  18.7601   0.3430     1.995     1.776 -28.76  4.07     13.89073   0  0.965
       361   1267.7593   2665.1511  18.6204   0.3206  18.6733   0.3285  18.6415   0.3246     2.161     1.938 -33.73  3.50     13.86984   0  0.976
       362   4097.8730   2665.1201  19.5097   0.4835  20.9464   0.9359  19.3751   0.4564     2.208     1.267   1.68  7.78     13.97074   0  0.001
       363   1377.9363   2668.4531  19.3101   0.4405  19.4126   0.4617  19.3710   0.4555     2.055     1.774 -29.20  3.53     13.85778   0  0.966
       364     92.3076   2676.6909  17.3114   0.1754  17.3309   0.1770  17.2940   0.1742     2.402     2.217 -39.38  3.50     13.83459   0  0.982
       365   5164.6738   2682.8306  17.8757   0.2275  17.9042   0.2305  17.8407   0.2242     2.269     2.034 -27.05  3.50     13.90508   0  0.981
       366   5605.5786   2688.2334  20.7433   0.8532  22.1720   1.6457  20.4182   0.7448     1.080     0.829 -31.93  7.54     13.91512   0  0.518
       367   7801.5669   2696.6401  19.5488   0.4917  19.6860   0.5237  19.4077   0.4634     1.888     1.663 -29.94  3.50     13.87107   0  0.947
       368   3530.1509   2698.4021  20.8254   0.8857  21.5042   1.2099  20.7295   0.8639     1.239     0.980 -15.19  5.26     13.91906   0  0.624
       369   2415.1506   2709.0723  19.3723   0.4533  19.4719   0.4745  19.3454   0.4501     2.015     1.753 -35.82  3.68     13.88441   0  0.972
       370   4952.4658   2709.8552  20.2909   0.6924  20.6469   0.8152  20.0556   0.6276     1.529     1.389 -33.81  4.77      13.9075   0  0.721
       371     74.6796   2711.1794  19.9500   0.5917  20.1999   0.6635  19.7309   0.5389     1.840     1.535 -18.66  4.59     13.82802   0  0.882
       372   6477.3867   2713.4409  20.9208   0.9257  21.7097   1.3300  20.7400   0.8682     1.110     0.968 -44.93  5.97      13.8894   0  0.509
       373    982.1938   2720.7573  20.2760   0.6880  21.5194   1.2185  20.0685   0.6314     1.453     1.129 -28.48  6.84      13.8686   0  0.107
       374   7594.3584   2736.1492  19.2110   0.4209  19.3117   0.4407  19.0966   0.4009     1.945     1.758 -19.13  4.92     13.87391   0  0.966
       375    983.5633   2742.9045  19.2112   0.4209  19.2989   0.4381  18.9187   0.3691     2.072     1.841 -30.69  3.50     13.86771   0  0.960
       376   2123.2727   2749.5530  18.4641   0.2986  19.3862   0.4562  18.3451   0.2830     3.554     2.298  38.73  6.65     13.88817   0  0.000
       377   2885.0056   2746.0291  20.0186   0.6106  20.2482   0.6784  20.0815   0.6353     1.741     1.480 -38.98  4.16     13.90692   0  0.892
       378   3832.9077   2769.8467  20.0091   0.6079  20.2250   0.6713  20.1829   0.6664     1.730     1.548 -17.30  3.78     13.95586   0  0.868
       379    297.3369   2781.5095  19.6821   0.5234  21.0672   0.9895  19.4163   0.4653     1.913     1.367  60.62  7.39      13.8194   0  0.004
       380   6331.0103   2789.5115  20.9804   0.9513  21.6733   1.3079  20.9142   0.9440     1.165     0.976  -1.73  5.14     13.91045   0  0.575
       381   1587.9956   2803.0781  18.7315   0.3374  18.7966   0.3477  18.7010   0.3337     2.244     1.915 -33.27  3.50     13.85168   0  0.968
       382   2771.2292   2821.6648  18.4961   0.3030  19.2813   0.4347  18.4478   0.2968     3.283     2.863  69.32  6.09     13.90991   0  0.000
       383   5574.3926   2811.7375  20.5733   0.7885  21.0360   0.9752  20.5062   0.7766     1.429     1.210 -30.94  4.54     13.91555   0  0.590
       384   3063.4297   2831.1570  17.5203   0.1933  17.9097   0.2311  17.5892   0.1996    10.749     2.420  13.98  4.78     13.91639   0  0.000
       385   4925.9282   2832.9563  20.0658   0.6240  20.2415   0.6764  20.0250   0.6186     1.726     1.526 -35.32  3.65     13.93189   0  0.894
       386   2483.3264   2864.1406  16.2374   0.1070  16.2414   0.1072  16.2076   0.1055     2.474     2.225 -33.83  3.50     13.89416   0  0.984
       387     69.6099   2861.6082  20.0519   0.6206  21.5757   1.2505  19.8551   0.5712     1.929     0.856 -44.96  7.82     13.82177   0  0.053
       388    666.3909   2880.9480  18.8653   0.3592  19.4754   0.4753  18.8176   0.3522     3.271     2.575  68.23  5.39     13.84971   0  0.000
       389   8343.9268   2876.4033  19.9481   0.5913  20.4238   0.7356  19.9447   0.5957     1.968     1.485 -52.86  5.22     13.86331   0  0.100
       390   7597.5728   2889.2095  19.1709   0.4131  19.2485   0.4281  19.1034   0.4022     2.037     1.801 -26.58  3.50     13.87731   0  0.974
       391   6000.1802   2891.1780  19.9599   0.5949  21.4127   1.1602  19.9645   0.6012     1.639     1.341  85.80  7.34     13.91453   0  0.009
       392   2110.4573   2907.1785  20.6283   0.8087  21.0435   0.9786  20.7433   0.8696     1.509     1.179 -17.27  4.35     13.88291   0  0.692
       393   8427.7920   2914.1208  18.7018   0.3328  18.7624   0.3422  18.6248   0.3221     2.142     1.885 -31.77  3.50     13.85167   0  0.974
       394   5144.3750   2915.4592  20.6871   0.8313  21.6178   1.2749  21.0282   0.9975     1.176     1.057   6.86  6.27     13.92607   0  0.573
       395   3677.8032   2916.8025  20.3241   0.7034  21.2627   1.0826  20.2374   0.6837     1.460     1.240   6.66  6.40     13.93886   0  0.221
       396   5282.8799   2917.7380  20.3287   0.7044  20.6673   0.8229  20.3416   0.7182     1.583     1.293 -19.51  4.32     13.91004   0  0.651
       397   5917.9766   2918.1467  19.0917   0.3983  19.1741   0.4137  19.0642   0.3949     1.994     1.819 -34.02  3.50     13.92666   0  0.971
       398   1030.1538   2943.1960  16.3311   0.1117  16.3372   0.1120  16.3020   0.1102     2.524     2.277 -37.80  3.50     13.86748   0  0.984
       399   1242.5591   2931.7124  18.8192   0.3513  18.9037   0.3652  18.7286   0.3380     2.167     1.927 -30.26  3.52      13.8512   0  0.975
       400   1287.6338   2931.9399  20.4743   0.7535  20.9978   0.9582  20.4032   0.7395     1.495     1.247 -12.77  5.10     13.84665   0  0.666
       401   5462.9370   2933.9883  20.1007   0.6341  20.3246   0.7028  20.2470   0.6868     1.663     1.510 -17.78  3.94     13.91002   0  0.897
       402   3545.6311   2972.7002  16.7779   0.1372  16.7883   0.1379  16.7209   0.1337     2.432     2.184 -33.05  3.50     13.92304   0  0.984
       403   2631.3462   2972.5774  18.7386   0.3385  18.7840   0.3456  18.6580   0.3271     2.176     1.886 -33.79  3.50      13.8998   0  0.978
       404   7810.1089   2975.5078  18.7001   0.3328  19.2589   0.4302  18.5361   0.3092     2.403     2.225  17.65  5.79     13.89534   0  0.142
       405    631.6455   2977.9878  19.4002   0.4592  19.5070   0.4822  19.3708   0.4555     1.977     1.778 -28.86  3.68     13.85962   0  0.955
       406      7.6623   2994.3477  19.9560   0.5932  20.1614   0.6519  19.9700   0.6008     1.777     1.590 -36.27  3.83     13.82791  16  0.832
       407   2653.3081   3005.2600  21.1047   1.0076  22.0228   1.5364  20.7761   0.8834     1.002     0.881  16.37  6.28     13.90463   0  0.494
       408   6038.1958   3018.3323  19.7280   0.5345  20.5890   0.7938  19.7532   0.5445     1.819     1.555 -10.57  6.52     13.95783   0  0.043
       409   5385.7979   3021.5562  19.4955   0.4803  20.5124   0.7664  19.3811   0.4577     2.298     1.755 -38.02  6.46     13.91643   0  0.002
       410   1359.5913   3021.6851  19.6418   0.5137  20.6703   0.8241  19.4162   0.4652     1.925     1.590  86.52  6.56     13.85077   0  0.002
       411   8336.8857   3168.4270  14.2384   0.0426  14.2711   0.0433  14.3015   0.0439     9.631     9.026  76.46  3.76      14.1696   0  0.029
       412   4835.9863   3057.9036  20.5084   0.7653  20.9492   0.9370  20.6159   0.8182     1.464     1.225 -22.93  4.64     13.94393   0  0.699
       413   7817.9126   3064.0959  17.8575   0.2256  17.8839   0.2283  17.8259   0.2226     2.260     2.045 -33.03  3.50     13.88682   0  0.982
       414    313.9026   3060.7002  19.5427   0.4904  19.7106   0.5297  19.3956   0.4608     1.983     1.755 -29.35  4.12     13.83661   0  0.922
       415   4488.3198   3070.0212  18.5479   0.3102  18.9736   0.3772  18.3828   0.2880     3.086     2.665 -18.87  5.16     13.98144   0  0.013
       416   7923.3735   3074.6453  18.4506   0.2965  18.4942   0.3025  18.3987   0.2901     2.167     1.987 -40.42  3.50     13.88938   0  0.978
       417   2380.0913   3075.1555  20.4511   0.7453  20.6953   0.8336  20.3925   0.7358     1.597     1.328 -16.17  4.22     13.88326   0  0.335
       418   2156.2305   3096.0579  18.7524   0.3408  19.0874   0.3975  18.7224   0.3370     3.180     2.197 -30.77  4.74     13.86746   0  0.008
       419   7036.9277   3098.8789  18.0990   0.2521  18.1357   0.2564  18.0827   0.2507     2.198     2.020 -31.46  3.50     13.93127   0  0.979
       420   4507.4351   3110.5674  18.7277   0.3370  19.1567   0.4104  18.5083   0.3052     2.585     2.229 -53.50  5.39     13.97937   0  0.083
       421   4976.8848   3137.8030  18.0232   0.2436  18.5777   0.3143  17.8581   0.2260     3.250     2.901  63.80  5.83     13.96245   0  0.012
       422    834.7307   3165.0662  14.2663   0.0432  14.2569   0.0430  14.2406   0.0426     2.689     2.442 -36.96  3.50     13.88088   0  0.999
       423   1286.3246   3181.8440  14.3719   0.0453  14.3630   0.0451  14.3476   0.0448     2.655     2.421 -35.01  3.50     13.89294   0  0.999
       424   5964.9473   3258.4202  14.1044   0.0401  14.0878   0.0398  14.0768   0.0396     6.958     6.237 -78.41  3.50     14.10435   0  0.100
       425   4503.1118   3166.8455  18.8300   0.3533  19.2540   0.4292  18.6289   0.3227     2.574     2.194  37.20  5.30     13.98918   0  0.079
       426   2164.3191   3179.3567  18.8325   0.3536  19.0780   0.3958  18.7453   0.3406     2.667     2.072 -65.44  4.34      13.8798   0  0.098
       427    126.7751   3190.2324  18.6108   0.3193  18.9455   0.3724  18.4640   0.2990     3.158     2.097 -48.56  4.96     13.84578   0  0.022
       428    336.8108   3188.4724  19.0159   0.3850  19.7031   0.5279  18.8221   0.3530     2.334     2.257  59.72  6.06      13.8449   0  0.016
       429   4047.2258   3199.6519  17.7857   0.2183  17.8129   0.2210  17.7303   0.2130     2.335     2.044 -36.23  3.50     13.99085   0  0.982
       430   4313.6606   3206.1001  17.0434   0.1551  17.0555   0.1559  19.6345   0.5151     2.402     2.148 -33.05  3.50     14.00218   0  0.983
       431    388.8831   3200.6543  19.2174   0.4223  19.6656   0.5188  18.9873   0.3811     2.440     1.982  -6.95  5.12     13.84662   0  0.051
       432   6648.4395   3215.0562  18.8791   0.3614  19.7403   0.5370  18.5203   0.3069     2.196     2.093 -65.51  6.62     13.95008   0  0.180
       433   7101.7964   3216.7947  20.3877   0.7242  21.8406   1.4127  20.3617   0.7251     1.273     0.963  72.62  7.41     13.93245   0  0.312
       434   5681.4360   3220.6877  19.2638   0.4312  19.3718   0.4531  19.2446   0.4295     1.998     1.815 -20.64  3.56     13.94898   0  0.963
       435   6927.4233   3229.1714  17.2528   0.1707  17.2694   0.1721  17.2165   0.1680     2.322     2.150 -35.25  3.50     13.93122   0  0.983
       436   7070.4224   3235.7668  20.9979   0.9591  21.9676   1.4978  21.2133   1.0914     1.071     0.819 -30.92  6.34     13.93717   0  0.528
       437   1226.6833   3289.2383  17.4785   0.1896  17.9201   0.2322  17.4702   0.1889     5.913     3.237 -81.16  5.18     13.90279   0  0.013
       438   6494.3467   3253.2327  17.6775   0.2076  17.7021   0.2100  17.6142   0.2019     2.271     2.097 -28.49  3.50     13.95662   0  0.982
       439   1995.5016   3250.9888  20.1459   0.6478  22.2795   1.7293  19.5915   0.5049     1.100     0.809  -0.09  8.70     13.86821   0  0.104
       440   6079.8975   3263.0688  20.3194   0.7018  21.1056   1.0070  20.0822   0.6355     1.599     1.152 -24.25  6.04     14.03464   0  0.480
       441   5916.1592   3266.3381  19.5783   0.4986  19.8612   0.5677  18.3709   0.2864     1.893     1.646 -21.95  5.02     14.07895   0  0.951
       442   1475.6200   3296.8906  17.7778   0.2175  17.8054   0.2202  17.7486   0.2148     2.328     2.066 -31.21  3.50     13.87476   0  0.982
       443   7555.9395   3294.7444  20.3279   0.7042  20.6328   0.8099  20.3907   0.7351     1.567     1.381 -12.73  4.22      13.9179   0  0.688
       444   3277.0305   3297.2126  20.4428   0.7424  20.8103   0.8789  20.5494   0.7927     1.567     1.280 -27.94  4.31     13.93663   0  0.629
       445   2150.1050   3311.7209  19.9562   0.5932  20.1327   0.6433  19.9845   0.6069     1.734     1.549 -32.57  3.63     13.88285   0  0.916
       446     38.9896   3316.2051  20.4845   0.7572  21.3782   1.1417  20.4838   0.7684     1.337     1.126 -34.92  6.28     13.84745   0  0.647
       447   2361.6699   3331.4517  20.4883   0.7586  21.7011   1.3248  19.8856   0.5794     1.189     1.053 -13.68  7.00     13.88343   0  0.664
       448   1345.2776   3332.0552  19.5404   0.4898  19.6718   0.5203  19.5655   0.4988     1.919     1.702 -29.08  3.50      13.8739   0  0.950
       449   7023.5381   3355.3643  15.3981   0.0727  15.3943   0.0726  15.3682   0.0717     2.490     2.299 -34.23  3.50     13.95315   0  0.985
       450   4375.5098   3554.1362  13.2290   0.0268  13.2717   0.0273  13.7309   0.0337    20.890    17.697  -7.04  3.50     14.42029   2  0.011
       451   5205.0684   3346.7573  19.9748   0.5987  20.4415   0.7416  19.4739   0.4779     1.685     1.624 -31.24  5.22     13.97581   0  0.167
       452   1037.0315   3357.6602  18.1970   0.2639  18.6803   0.3296  17.8472   0.2248     2.986     2.608  50.14  5.71     13.87153   0  0.029
       453   6675.1143   3366.0098  18.7375   0.3384  18.7857   0.3459  18.6838   0.3311     2.124     1.920 -30.42  3.50     13.96845   0  0.973
       454   5237.2334   3368.5593  18.0342   0.2447  18.0653   0.2482  17.9973   0.2410     2.242     2.008 -30.76  3.50     13.97908   0  0.981
       455   2108.1372   3397.0154  14.1695   0.0413  14.1593   0.0411  14.1444   0.0408     2.684     2.408 -35.60  3.50     13.88319   0  0.999
       456   6785.2402   3371.4668  20.6727   0.8257  21.4145   1.1609  20.4884   0.7700     1.252     1.032  -2.19  5.89     13.95307   0  0.648
       457   1048.3425   3375.5796  19.4014   0.4598  21.4606   1.1860  18.7602   0.3430     1.574     1.262 -47.35  8.70     13.87373   0  0.016
       458   1012.7968   3377.1523  19.3487   0.4489  20.1890   0.6603  18.8048   0.3501     2.317     1.966 -39.34  6.20     13.87044   0  0.000
       459   1199.1282   3385.1658  20.8405   0.8921  21.6958   1.3216  20.6411   0.8281     1.307     0.961 -29.76  5.78     13.87434   0  0.647
       460   5339.7925   3386.3105  18.9869   0.3796  19.0678   0.3939  18.9553   0.3755     2.083     1.880 -30.19  3.50     13.98904   0  0.973
       461   5924.0986   3387.5728  20.6242   0.8073  21.1305   1.0186  20.2973   0.7033     1.392     1.146 -55.35  4.83     14.02502   0  0.561
       462   8215.2217   3401.5923  19.3709   0.4534  19.9162   0.5823  19.1991   0.4205     3.297     1.591 -75.68  5.33     13.92583   0  0.000
       463   5534.0039   3397.7312  20.1742   0.6561  20.4043   0.7290  20.0450   0.6244     1.661     1.491 -25.10  4.37     13.97805   0  0.812
       464   3218.5559   3425.2793  18.8590   0.3582  19.3960   0.4583  18.8477   0.3572     5.070     1.938 -70.70  5.08      13.9386   0  0.000
       465   8254.5342   3409.4001  19.1307   0.4060  19.9817   0.6002  19.0890   0.3995     3.034     1.769  34.69  6.19     13.92044   0  0.000
       466    186.3804   3425.7341  18.4086   0.2910  18.9561   0.3742  18.3057   0.2779     3.673     2.420 -66.63  5.67     13.85939   0  0.012
       467   4369.5435   3414.6628  19.0114   0.3839  19.0890   0.3978  18.8812   0.3628     2.125     1.815 -18.30  3.50     14.13025   0  0.974
       468   5559.4531   3423.8401  19.7591   0.5418  19.9199   0.5832  19.4772   0.4787     1.858     1.606 -18.52  3.80     13.98317   0  0.934
       469   1221.5582   3443.3398  17.0672   0.1568  17.0796   0.1577  17.0395   0.1549     2.441     2.170 -37.99  3.50     13.87239   0  0.983
       470   5186.9976   3464.9504  19.4903   0.4787  19.6283   0.5099  19.3060   0.4419     2.067     1.685 -38.44  3.88     13.99277   0  0.932
       471   2501.4448   3478.3811  20.9682   0.9460  21.6918   1.3191  20.5949   0.8101     1.113     0.964 -40.34  5.50     13.87005   0  0.486
       472   6390.3062   3480.7278  20.3054   0.6973  21.6012   1.2652  19.9605   0.6001     1.369     1.034  20.27  7.23     13.97587   0  0.306
       473   1173.5084   3488.3525  18.2817   0.2744  18.6551   0.3258  18.2087   0.2657     3.690     2.913   6.86  4.98      13.8676   0  0.005
       474   4987.6914   3484.7166  18.0450   0.2459  18.0738   0.2492  18.0449   0.2463     2.251     2.002 -28.81  3.50     13.99704   0  0.981
       475   2887.2053   3485.9985  20.5345   0.7747  21.0576   0.9850  20.3533   0.7222     1.486     1.161 -27.83  5.08     13.90706   0  0.649
       476   1441.4719   3492.2388  19.1757   0.4145  20.0233   0.6118  19.1603   0.4130     2.842     1.885  62.08  6.28     13.88229   0  0.000
       477   3206.6833   3509.3411  18.9003   0.3651  19.5232   0.4859  18.8142   0.3517     3.882     2.032 -86.91  5.51     13.93614   0  0.000
       478   2647.1440   3494.1511  20.0625   0.6232  20.3995   0.7274  19.9107   0.5863     1.757     1.500 -39.61  4.54     13.88182   0  0.806
       479   6764.9575   3498.2734  19.5615   0.4950  21.6520   1.2953  19.1953   0.4198     1.454     1.203 -80.53  8.57     13.96888   0  0.048
       480   7903.3193   3532.6145  14.0475   0.0390  14.0366   0.0388  14.0216   0.0386     2.622     2.414 -35.43  3.50     13.94658   0  0.999
       481   7084.0186   3507.8057  20.8717   0.9049  21.4598   1.1854  20.9701   0.9698     1.233     1.089  -0.81  5.26     13.96091   0  0.657
       482    875.5931   3536.7703  16.2026   0.1053  16.2066   0.1055  16.1824   0.1043     2.509     2.263 -36.92  3.50     13.84787   0  0.987
       483   1176.8553   3539.6021  18.8851   0.3622  18.9529   0.3736  18.7777   0.3458     2.099     1.891 -24.55  3.50     13.86139   0  0.974
       484    172.6072   3544.3682  20.8348   0.8898  22.0207   1.5349  20.9367   0.9543     1.056     0.900 -44.41  6.78     13.86361   0  0.482
       485    268.5496   3548.2129  20.3088   0.6984  21.0028   0.9604  20.3775   0.7306     1.520     1.348   2.65  5.75     13.85506   0  0.232
       486   1490.3593   3554.6135  19.6530   0.5163  20.3328   0.7054  19.5123   0.4866     1.955     1.703 -36.82  6.01     13.91069   0  0.067
       487   5399.1030   3569.6912  17.0417   0.1549  17.0535   0.1558  16.9975   0.1519     2.370     2.130 -33.57  3.50     13.98205   0  0.983
       488   3461.7290   3564.3015  20.2438   0.6774  20.5681   0.7862  20.1770   0.6645     1.642     1.411 -25.55  4.19     13.94418   0  0.721
       489   1594.7944   3589.0664  14.6766   0.0521  14.6695   0.0520  14.6519   0.0515     2.626     2.365 -35.90  3.50     13.91051   0  0.995
       490   5584.1167   3567.7683  17.7932   0.2190  17.8178   0.2215  17.7577   0.2157     2.273     2.026 -28.65  3.50     14.00274   0  0.982
       491   4339.3369   3590.7854  16.1998   0.1051  16.2053   0.1054  16.0128   0.0965     2.516     2.338 -31.08  3.50     14.36895   3  0.984
       492   1504.4506   3589.2468  19.8066   0.5540  20.3363   0.7066  19.7313   0.5390     1.951     1.693 -46.59  5.15     13.92193   0  0.067
       493   1454.6764   3639.1475  17.2169   0.1680  17.5037   0.1917  17.1524   0.1631     5.817     3.123  64.20  4.86     13.90841   0  0.022
       494   1416.8363   3598.6321  18.8480   0.3562  19.3148   0.4414  18.7083   0.3348     2.844     2.369 -57.88  5.19     13.89561   0  0.003
       495   3970.8069   3617.5801  15.3901   0.0724  15.3864   0.0723  15.3610   0.0715     2.539     2.292 -32.78  3.50     14.02598   0  0.986
       496   1252.6124   3601.4448  19.9347   0.5879  20.8836   0.9092  19.7564   0.5453     2.091     1.211 -32.63  6.41      13.8636   0  0.001
       497   5623.5688   3608.7476  19.7907   0.5497  19.9543   0.5926  19.8021   0.5572     1.819     1.599  -9.56  3.84     13.99794   0  0.918
       498   3490.4436   3611.7239  20.0724   0.6259  20.2824   0.6892  20.1618   0.6597     1.761     1.502 -27.64  3.78     13.95122   0  0.897
       499   1661.3402   3620.8879  19.7897   0.5494  19.9348   0.5873  19.9578   0.5993     1.847     1.603 -23.38  3.52     13.89593   0  0.919
       500   5241.0566   3646.6621  19.8269   0.5594  20.7095   0.8391  19.7085   0.5333     1.731     1.514 -12.15  6.49     13.99831   0  0.244
       501   3075.4307   3662.1069  19.2490   0.4283  19.3476   0.4481  19.2951   0.4397     2.066     1.780 -30.94  3.50     13.92315   0  0.969
       502    111.1570   3665.7104  20.3379   0.7079  21.6715   1.3069  20.3195   0.7108     1.394     1.028  50.75  7.25     13.84735   0  0.058
       503   2971.0759   3669.1360  20.6665   0.8234  21.3349   1.1192  20.2220   0.6787     1.423     1.106 -38.17  5.46     13.91403   0  0.618
       504   3914.1699   3672.4280  20.5267   0.7722  21.7253   1.3397  20.0556   0.6276     1.263     0.981 -16.30  7.10     14.01555   0  0.646
       505   7405.6855   3671.9004  19.0683   0.3941  19.1345   0.4062  19.0466   0.3917     2.057     1.834 -25.77  3.50     13.96664   0  0.972
       506   1036.6458   3681.9746  19.9191   0.5833  20.1363   0.6444  19.8787   0.5775     1.820     1.575 -19.70  4.06     13.84292   0  0.836
       507   3662.7065   3687.6885  19.1026   0.4006  19.5393   0.4895  18.9523   0.3750     2.389     2.071 -11.26  5.22      13.9879   0  0.062
       508   5132.6152   3703.0188  17.3170   0.1759  17.3366   0.1775  17.1824   0.1654     2.398     2.168 -40.13  3.50       14.012   2  0.982
       509   5124.2354   3720.4604  14.6653   0.0519  14.6564   0.0516  14.6359   0.0512     2.592     2.352 -33.80  3.50     14.00831   2  0.989
       510   7286.9888   3705.9138  20.2201   0.6703  20.7629   0.8600  20.3163   0.7097     1.693     1.426 -31.06  5.22     13.99003   0  0.351
       511   6610.3691   3726.7847  16.6371   0.1286  16.6441   0.1290  16.6069   0.1269     2.396     2.186 -35.34  3.50     13.98808   0  0.983
       512   7413.7808   3722.5166  20.4340   0.7399  21.6799   1.3120  20.0562   0.6277     1.273     1.039   1.25  7.22     13.98153   0  0.197
       513    152.2555   3736.7214  18.2544   0.2710  18.7279   0.3368  18.1073   0.2535     2.776     2.584  41.17  5.74      13.8419   0  0.030
       514   1719.9642   3743.0535  16.6470   0.1292  16.6539   0.1296  16.6178   0.1275     2.452     2.192 -30.92  3.50     13.89422   0  0.983
       515   4123.1772   3735.1953  20.5259   0.7718  21.5389   1.2294  20.7672   0.8796     1.260     1.090 -41.79  6.50     14.05374   0  0.165
       516   7385.1279   3735.4175  20.5023   0.7636  21.8857   1.4425  20.2560   0.6897     1.277     0.989 -14.38  7.36     13.98193   0  0.293
       517   3618.0642   3743.5823  19.6879   0.5248  21.0619   0.9870  19.6483   0.5185     1.827     1.410  66.75  7.48     13.97952   0  0.000
       518   2400.3325   3771.0557  14.9055   0.0579  14.8989   0.0578  14.8800   0.0573     2.607     2.334 -35.55  3.50     13.88522   0  0.993
       519   4399.0205   3762.3916  19.6338   0.5113  19.7585   0.5415  19.5281   0.4902     1.957     1.660 -23.82  3.50     14.11356   0  0.938
       520   7417.6382   4118.7144  12.9128   0.0231  12.9732   0.0238  13.6701   0.0328    40.584    14.640  -0.86  3.63     15.38263   2  0.002
       521   7520.5034   3780.4351  16.5067   0.1211  16.5140   0.1215  16.4737   0.1193     2.404     2.197 -37.85  3.50     13.99979   0  0.983
       522    423.7640   3779.5708  19.7024   0.5283  20.9333   0.9302  19.2565   0.4319     1.687     1.492  12.12  7.27     13.84959   0  0.001
       523   5256.0923   3820.7576  15.4825   0.0756  15.4805   0.0755  15.4565   0.0747     2.513     2.275 -35.98  3.50     13.99383   0  0.985
       524   6648.4814   3826.6931  19.9896   0.6025  20.2180   0.6691  19.8361   0.5661     1.812     1.478 -28.08  4.06     13.97629   0  0.818
       525   3222.8950   3834.4912  18.9328   0.3705  19.7125   0.5302  18.5893   0.3169     2.800     1.946 -39.01  6.35     13.92825   0  0.066
       526   1472.1096   3841.6926  18.6373   0.3233  19.2088   0.4204  18.4850   0.3019     2.588     2.433 -44.67  5.74     13.87975   0  0.028
       527   2174.2131   3839.5759  19.7474   0.5389  19.9213   0.5836  19.7236   0.5371     1.927     1.583 -33.10  3.84     13.87553   0  0.933
       528    266.5188   3842.5271  19.6787   0.5221  19.7990   0.5517  19.5370   0.4922     1.874     1.702 -29.00  3.77     13.84248   0  0.932
       529   6606.3252   3846.8640  20.3892   0.7243  20.7565   0.8574  20.3569   0.7235     1.591     1.304 -14.67  4.23     13.97705   0  0.747
       530   1658.4441   3849.5876  19.8594   0.5679  20.8109   0.8792  19.9124   0.5867     1.937     1.432 -13.64  6.52     13.88455   0  0.001
       531   1259.9692   3862.0791  18.4820   0.3010  19.0929   0.3985  18.4211   0.2931     3.837     2.698 -53.46  5.46     13.85416   0  0.000
       532    523.2418   3867.9558  15.6822   0.0828  15.6819   0.0828  15.6543   0.0818     2.558     2.328 -36.83  3.50     13.87337   0  0.984
       533   7692.2217   3860.5598  18.7205   0.3357  18.7751   0.3442  18.6853   0.3313     2.099     1.901 -25.87  3.50      13.9998   0  0.976
       534   6265.8350   4302.6938  10.3612   0.0071  10.2142   0.0067  15.2604   0.0682  1235.036    15.828   0.03  3.50     3.966952  18  0.001
       535   6210.6099   3877.9009  19.1564   0.4107  20.0504   0.6194  18.9214   0.3696     2.208     1.929 -57.50  6.64     13.95535   0  0.002
       536   6504.7881   3887.6289  20.3715   0.7185  20.7680   0.8620  20.2697   0.6942     1.546     1.349 -28.21  4.62     13.97112   0  0.687
       537   6272.5166   3899.6052  17.7834   0.2180  17.8071   0.2204  17.7601   0.2160     2.282     2.050 -30.69  3.50     13.95663   0  0.982
       538   1042.1816   3923.1089  18.5521   0.3110  19.4853   0.4775  18.5550   0.3119     4.782     2.069 -88.50  6.31     13.84652   0  0.001
       539   7892.3003   3905.1643  19.7597   0.5422  20.3030   0.6958  19.7270   0.5379     1.903     1.808  30.54  5.23     13.96015   0  0.019
       540   3017.1992   3912.4822  19.6659   0.5190  19.8036   0.5528  19.5705   0.4999     1.917     1.661 -27.56  3.55     13.90819   0  0.931
       541   7594.8516   3925.2688  20.1676   0.6545  21.2123   1.0577  19.3308   0.4471     1.545     1.221 -54.30  6.71     14.03816   0  0.014
       542    491.1588   3934.6816  19.7154   0.5315  20.9912   0.9554  19.5859   0.5036     1.783     1.555 -25.36  7.21     13.85531   0  0.002
       543    545.7885   3935.3521  19.5631   0.4952  20.0362   0.6154  19.4378   0.4699     2.227     1.735   5.05  5.05     13.85411   0  0.088
       544   2461.9832   3935.1624  19.5997   0.5038  20.2394   0.6758  19.3657   0.4544     2.165     1.810 -20.58  5.73     13.88828   0  0.004
       545   4297.5122   3940.0513  20.5032   0.7631  20.2198   0.6696  99.0000  99.0000     1.511     0.907 -86.23  3.50     14.03124   0  0.816
       546   7419.6792   4067.9954  13.7846   0.0346  13.9290   0.0370  14.7740   0.0545    49.839     7.046  -0.18  3.83     15.36885   3  0.002
       547   4994.3970   3959.8811  20.5732   0.7885  21.0809   0.9956  20.6525   0.8327     1.429     1.165 -21.04  4.88     13.98816   0  0.719
       548   4838.6201   3968.9521  18.7968   0.3480  19.4459   0.4689  18.7888   0.3476     3.298     2.555 -17.69  5.45     14.00631   0  0.000
       549   7853.1909   3975.2932  20.6775   0.8273  21.1542   1.0298  21.0340   1.0002     1.386     1.164 -11.59  4.56     13.96642   0  0.590
       550   5042.9731   3978.1353  18.1238   0.2550  18.1582   0.2591  18.1132   0.2542     2.238     1.995 -32.77  3.50     13.98747   0  0.981
       551   6439.6680   3992.5608  18.4922   0.3024  18.9237   0.3687  18.4316   0.2946     4.418     2.642  31.95  4.72     13.97152   0  0.000
       552   3289.3376   3988.0623  20.3310   0.7057  21.4463   1.1782  20.0489   0.6256     1.436     1.217 -29.73  6.56     13.91134   0  0.001
       553   7155.8428   3989.0652  20.0933   0.6325  20.9270   0.9275  19.8274   0.5638     1.543     1.452 -21.70  6.34     14.05504   0  0.433
       554   3871.0942   4021.5793  14.2560   0.0430  14.2463   0.0428  14.2313   0.0425     2.648     2.392 -34.89  3.50     13.99333   0  0.996
       555   6660.9663   4003.2073  17.1254   0.1610  17.1401   0.1621  17.1046   0.1596     2.370     2.138 -34.46  3.50     13.98814   0  0.983
       556   6885.2832   4005.7527  19.3162   0.4417  19.4290   0.4652  19.3181   0.4444     2.008     1.783 -37.52  3.67      13.9966   0  0.966
       557   7783.0576   4007.1550  20.1662   0.6541  21.7032   1.3261  20.0250   0.6186     1.648     0.917  50.23  7.74     13.98654   0  0.242
       558   1896.0767   4038.8557  14.9587   0.0594  14.9473   0.0591  14.9280   0.0585     2.688     2.440 -61.40  3.50     13.90613   0  0.991
       559   5618.9624   4026.6006  20.1106   0.6372  20.3759   0.7195  19.8709   0.5754     1.657     1.503 -30.42  4.54     13.97234   0  0.779
       560   5623.6709   4040.4707  18.2072   0.2650  18.2426   0.2694  18.1510   0.2587     2.206     1.980 -26.84  3.50     13.97282   0  0.980
       561   8462.7168   4043.4138  21.3046   1.1038  21.4141   1.1606  20.9772   0.9731     0.959     0.941 -71.26  3.50     13.85787   0  0.647
       562    959.7355   4045.4185  19.7820   0.5480  21.3854   1.1456  19.5616   0.4979     1.474     1.383 -33.76  7.92      13.8482   0  0.013
       563   5167.4761   4065.2095  16.3974   0.1152  16.4034   0.1155  16.3705   0.1138     2.443     2.193 -32.76  3.50     13.97974   0  0.983
       564   3047.8640   4069.6982  19.4401   0.4680  19.9020   0.5785  19.2840   0.4374     2.379     1.810  81.20  5.17      13.9083   0  0.108
       565   4102.5156   4067.7729  20.8465   0.8938  20.9613   0.9421  20.9120   0.9430     1.106     0.979 -87.96  3.50     14.02702   0  0.926
       566   5890.7080   4079.5984  19.6012   0.5039  19.9435   0.5896  19.5007   0.4839     2.114     1.862  70.82  4.42     13.95121   0  0.050
       567   2211.3296   4081.1050  19.8002   0.5521  20.0019   0.6057  19.7937   0.5550     1.803     1.582 -35.74  3.89     13.87805   0  0.894
       568   8122.2944   4107.3350  14.8961   0.0577  14.8895   0.0575  14.8695   0.0570     2.531     2.323 -33.77  3.50     13.94229   0  0.994
       569   5358.8174   4084.0669  19.7788   0.5470  20.3449   0.7094  19.2491   0.4304     1.895     1.685  -2.20  5.36     13.98397   0  0.070
       570   1325.6506   4132.0244  16.9611   0.1493  17.3218   0.1763  16.8951   0.1449     4.627     4.007 -50.79  5.28     13.88074   0  0.030
       571   6056.9307   4102.1943  19.7050   0.5284  19.8315   0.5600  19.6013   0.5072     1.879     1.656 -19.24  3.50       13.938   0  0.942
       572     66.6602   4106.3711  19.8497   0.5652  20.4811   0.7553  20.0267   0.6191     1.968     1.474   0.93  5.72     13.84595   0  0.086
       573   7254.4038   4119.7393  18.0677   0.2485  18.0999   0.2522  17.9666   0.2376     2.234     2.006 -31.00  3.50     14.20431   0  0.981
       574   1366.3247   4135.9424  16.3793   0.1142  16.3854   0.1145  16.3134   0.1108     2.511     2.235 -36.81  3.50     13.87486   0  0.983
       575   6523.9082   4154.8652  15.6059   0.0800  15.6045   0.0799  15.5791   0.0790     2.515     2.282 -35.34  3.50     14.00433   0  0.984
       576    331.9026   4143.6211  20.9126   0.9222  21.6762   1.3097  21.0301   0.9984     1.239     0.979 -17.09  5.70     13.84683   0  0.647
       577   1809.1179   4151.8027  20.0555   0.6215  20.6911   0.8320  19.9178   0.5882     1.716     1.517 -35.13  5.70     13.87134   0  0.071
       578   2190.5703   4157.3022  18.8173   0.3510  18.8823   0.3616  18.7753   0.3454     2.136     1.896 -31.17  3.50     13.88076   0  0.975
       579   4197.0000   4302.9590  14.9462   0.0591  14.5518   0.0492  15.1560   0.0650    24.087    14.341   0.90  3.50     3.766329   0  0.000
       580    699.6697   4182.9810  19.9299   0.5867  21.1655   1.0352  19.7587   0.5459     1.520     1.483  87.17  7.17       13.844   0  0.001
       581   2377.8875   4188.3096  20.7153   0.8420  21.3659   1.1352  20.4490   0.7557     1.298     1.099 -20.61  5.36     13.86569   0  0.615
       582   3098.5415   4189.7036  18.7376   0.3386  19.4083   0.4608  18.4975   0.3037     3.200     2.012  12.95  6.00     13.90485   0  0.011
       583   3102.2102   4206.6802  20.0455   0.6187  21.1730   1.0388  18.9066   0.3671     1.621     1.201 -54.01  7.03     13.90403   0  0.029
       584    772.1447   4221.2432  18.9116   0.3667  19.2132   0.4212  18.8778   0.3622     2.800     2.119 -49.29  4.58     13.84636   0  0.014
       585   7929.3096   4230.1919  19.5286   0.4871  19.4707   0.4742  99.0000  99.0000     1.767     1.593 -31.94  3.50     13.95476   0  0.963
       586   6532.8340   4262.1685  13.9342   0.0370  13.9204   0.0368  13.9255   0.0369     2.698     2.468 -33.53  3.50     12.90887   3  0.999
       587   3110.8740   4234.4185  19.7382   0.5370  20.5936   0.7955  19.5844   0.5032     2.388     1.380 -79.56  6.11     13.90379   0  0.001
       588   6883.9556   4239.8418  20.4114   0.7316  20.4146   0.7325  99.0000  99.0000     1.522     1.305 -15.69  3.50      13.9849   0  0.737
       589   4201.6147   4447.2061  14.0061   0.0383  13.7429   0.0339  14.7485   0.0539    25.929    21.714   3.38  3.50    0.0244192   0  0.022
       590     96.0518   4264.9907  15.3247   0.0703  15.3214   0.0702  15.2915   0.0692     2.567     2.358 -35.89  3.50     13.77963   0  0.986
       591   4328.8784   4438.1226  14.6846   0.0524  14.2087   0.0420  14.8534   0.0566    26.762    20.929 -22.79  3.50       1.4547   3  0.001
       592   5728.3501   4252.3110  20.1607   0.6518  20.3160   0.7000  99.0000  99.0000     1.634     1.435 -21.07  3.50     13.94723   0  0.919
       593    318.3171   4261.2124  20.0250   0.6125  20.2942   0.6930  19.7463   0.5428     1.830     1.534 -25.77  4.26     13.82055   0  0.616
       594    967.1521   4278.3506  20.1891   0.6608  20.7185   0.8426  19.3724   0.4558     1.595     1.363 -26.85  5.56     13.74734   0  0.536
       595   1187.7548   4316.8994  19.4517   0.4704  19.7374   0.5362  99.0000  99.0000     1.954     1.776 -27.72  4.98     13.60194   0  0.934
       596   2614.4556   4323.1685  19.5249   0.4864  19.9635   0.5951  99.0000  99.0000     3.091     1.654  17.92  3.50     13.53261   0  0.005
       597   6759.2900   4410.9263  12.7413   0.0214  11.4666   0.0119  16.4415   0.1176  1172.259    10.503  -0.10  3.50     5.704704  18  0.000
       598   3714.7144   4423.7490  20.3107   0.6988  20.8290   0.8865  99.0000  99.0000     1.522     1.298 -30.36  5.27      13.7614   0  0.631
       599   1267.9166   4423.9600  19.4239   0.4642  19.5372   0.4890  99.0000  99.0000     2.019     1.797 -34.88  3.50      13.7597   0  0.961
       600   2808.6379   4453.3311  15.4123   0.0732  15.4088   0.0730  15.3809   0.0721     2.549     2.290 -34.57  3.50     13.90774   0  0.985
       601   3455.3433   4434.8936  18.9183   0.3678  19.0279   0.3867  99.0000  99.0000     2.135     1.862 -24.68  3.78     13.83056   0  0.971
       602    329.6890   4439.2217  18.7698   0.3438  19.5335   0.4882  99.0000  99.0000     3.726     2.122  14.05  6.00     13.80698   0  0.000
       603   7373.3760   4442.3872  19.7115   0.5304  21.2842   1.0934  99.0000  99.0000     1.601     1.170 -44.39  8.11     12.48511   1  0.505
       604    479.6850   4444.9082  19.6026   0.5041  19.8148   0.5557  19.5188   0.4880     1.932     1.692 -41.53  4.26     13.83018   0  0.928
       605   5101.2495   4466.1045  17.5899   0.1994  17.5864   0.1991  18.7687   0.3443     2.233     1.981 -33.83  3.50     14.01416   0  0.983
       606   7124.5088   4463.0142  20.6564   0.8191  21.3554   1.1298  99.0000  99.0000     1.411     1.240 -29.91  3.75     13.99277   0  0.078
       607   1774.4272   4471.5137  18.9968   0.3816  19.5395   0.4896  19.0319   0.3891     3.376     1.975 -35.19  5.23     13.88981   0  0.000
       608   1123.4377   4479.7812  19.9275   0.5860  21.5802   1.2531  19.8727   0.5759     1.783     0.974 -41.16  8.00     13.88263   0  0.014
       609   3497.8154   4484.9512  19.5772   0.4983  19.8309   0.5598  19.6987   0.5308     2.515     1.664 -18.17  4.13     13.94403   0  0.035
       610   8303.4600   4521.6489  14.1414   0.0407  14.1296   0.0405  14.1127   0.0402     2.676     2.450 -39.08  3.50     13.91522   0  0.999
       611   4632.7764   4512.9844  15.6450   0.0814  15.6443   0.0814  15.6358   0.0811     2.532     2.284 -36.17  3.50     14.01257   0  0.986
       612    338.7353   4498.7236  19.6351   0.5121  20.4059   0.7296  19.4737   0.4779     1.945     1.749 -17.37  6.11     13.86945   0  0.004
       613   8484.2617   4500.7925  18.4137   0.2915  18.4295   0.2936  21.1595   1.0631     2.173     1.950 -35.34  3.50     13.89603   0  0.979
       614   8406.3125   4511.1021  16.5762   0.1250  16.5823   0.1254  16.6174   0.1275     2.407     2.184 -34.82  3.50     13.90658   0  0.984
       615   3223.0103   4503.9512  19.8106   0.5552  20.6322   0.8098  19.2731   0.4352     1.824     1.528 -44.47  6.23     13.91803   0  0.204
       616   7516.5869   4542.4980  17.6226   0.2026  18.2299   0.2678  17.5477   0.1958     5.802     3.099 -60.35  5.76     13.99788   0  0.000
       617   4982.7310   4597.9536  14.1253   0.0404  14.1017   0.0400  14.0816   0.0396     5.743     5.071 -81.24  3.50     14.08116   0  0.044
       618   5120.1611   4523.3833  20.5667   0.7865  21.5917   1.2597  19.4302   0.4683     1.245     0.984 -14.94  6.87     14.01601   0  0.666
       619    329.6778   4527.4858  19.8629   0.5687  20.6801   0.8278  19.7048   0.5323     2.066     1.430  11.33  5.98     13.87309   0  0.002
       620   7861.1304   4548.7627  17.0555   0.1559  17.0725   0.1571  16.8861   0.1443     2.429     2.197 -42.63  3.50     13.94169   0  0.983
       621   6781.1392   4539.2173  19.8027   0.5530  20.3047   0.6963  18.7127   0.3355     1.762     1.531 -31.44  5.65      13.9539   0  0.431
       622    159.8041   4550.4551  20.1416   0.6467  21.2711   1.0868  19.7410   0.5414     1.649     1.207 -18.47  6.73     13.86984   0  0.037
       623   2837.1641   4562.1436  20.8144   0.8814  21.5132   1.2149  20.3750   0.7297     1.263     1.073 -39.85  5.30      13.9083   0  0.592
       624   2917.9883   4569.5391  19.5654   0.4955  19.6747   0.5209  19.6483   0.5185     1.938     1.676 -21.76  3.50     13.90944   0  0.954
       625   1324.0574   4574.1323  18.4937   0.3024  18.5391   0.3088  18.4237   0.2935     2.255     1.961 -36.64  3.50      13.8589   0  0.976
       626   3505.8313   4581.4111  19.8662   0.5692  20.0009   0.6054  20.0735   0.6329     1.882     1.569 -33.57  3.97     13.94133   0  0.904
       627    233.0313   4600.5142  15.6069   0.0800  15.6056   0.0800  15.5789   0.0790     2.533     2.311 -34.79  3.50      13.8777   0  0.986
       628   4401.9312   4657.9980  13.9980   0.0381  13.9783   0.0378  13.9555   0.0374     4.650     4.182 -70.49  3.50     14.06701   0  0.953
       629    934.6160   4595.3149  20.3540   0.7132  21.5086   1.2125  20.4153   0.7438     1.486     1.090 -11.09  6.85     13.85634   0  0.055
       630   2438.7202   4609.0435  19.2648   0.4315  19.5033   0.4814  19.2296   0.4265     2.285     1.859 -20.08  4.39      13.8989   0  0.329
       631   2054.9749   4608.9976  19.8662   0.5697  21.2235   1.0633  19.6346   0.5151     1.777     1.197  -8.81  7.40     13.88973   0  0.029
       632   7292.1372   4610.8672  20.3298   0.7053  21.4262   1.1673  20.9109   0.9425     1.336     1.195 -49.36  6.88      13.9817   0  0.390
       633    828.3201   4630.5776  19.7385   0.5367  19.8883   0.5748  19.6523   0.5194     1.879     1.624 -35.56  3.93     13.83878   0  0.934
       634   4012.4751   4633.6172  19.6402   0.5129  19.7558   0.5408  19.6845   0.5273     1.833     1.656 -23.65  3.67     13.99086   0  0.939
       635   6162.8154   4659.4238  15.0501   0.0619  15.0442   0.0617  15.0191   0.0610     2.577     2.346 -38.81  3.50     13.97416   0  0.992
       636   3574.7493   4648.4893  19.9913   0.6035  20.9594   0.9415  19.5950   0.5057     2.029     1.224 -40.39  6.54     13.94142   0  0.002
       637   4793.6758   4655.5127  18.1324   0.2560  18.1652   0.2599  18.0825   0.2506     2.271     2.048 -33.59  3.50     14.03308   0  0.979
       638   6356.2930   4654.6650  19.5450   0.4913  20.8882   0.9111  19.4065   0.4631     1.856     1.394 -17.05  7.67     13.94689   0  0.001
       639   5332.4263   4657.4136  19.9801   0.5999  20.1957   0.6622  19.8629   0.5733     1.817     1.513 -14.52  3.91     13.96696   0  0.836
       640   6834.2061   4656.8618  19.9113   0.5811  20.1364   0.6444  19.7098   0.5336     1.837     1.476 -38.66  3.98     13.94178   0  0.900
       641   3624.5808   4669.6987  18.0258   0.2439  18.6472   0.3246  17.9099   0.2314     3.388     2.758  29.90  6.10     13.93297   0  0.010
       642   7273.5991   4671.5820  19.9334   0.5875  20.5483   0.7791  19.8032   0.5574     2.247     1.522  45.79  5.43     13.95767   0  0.001
       643   7329.9941   4680.1504  20.5272   0.7723  22.1541   1.6322  19.8283   0.5640     1.048     0.882  -0.92  7.91     13.95512   0  0.481
       644    824.9712   4692.7295  17.7696   0.2166  17.7981   0.2195  17.7595   0.2159     2.330     2.105 -34.97  3.50     13.82919   0  0.982
       645   2296.4873   4720.2612  15.0586   0.0622  15.0536   0.0620  15.0322   0.0614     2.605     2.324 -37.47  3.50      13.8949   0  0.996
       646   3337.8735   4703.9023  20.4898   0.7587  20.8819   0.9084  20.3559   0.7231     1.524     1.200 -21.39  4.45      13.8986   0  0.620
       647   4039.4656   4723.3848  18.2061   0.2651  18.9986   0.3816  18.0943   0.2520     3.592     2.873  85.44  6.39      13.9813   0  0.000
       648   1886.0311   4727.2559  18.8963   0.3645  20.3043   0.6963  18.7532   0.3419     2.559     2.014   8.86  7.50     13.87323   0  0.001
       649    202.6879   4752.9614  15.1465   0.0647  15.1423   0.0646  15.1187   0.0639     2.594     2.371 -36.67  3.50     13.84061   0  0.988
       650   2362.6587   4734.0693  18.9949   0.3814  20.2993   0.6947  18.8667   0.3603     3.190     1.461  39.60  7.43     13.89712   0  0.002
       651   3551.4324   4734.3574  19.7519   0.5400  19.9246   0.5845  19.6863   0.5278     1.871     1.581 -32.48  3.94     13.92635   0  0.931
       652   5379.0249   4744.0054  20.5500   0.7805  21.4479   1.1790  20.7143   0.8576     1.237     1.213 -16.73  6.22     13.95449   0  0.137
       653   3930.0073   4743.5156  20.9038   0.9185  21.6570   1.2981  21.0128   0.9900     1.167     0.975  -1.60  5.73     13.95323   0  0.639
       654   6231.4409   4749.4858  18.7375   0.3383  18.8020   0.3485  18.7855   0.3470     2.151     1.914 -37.05  3.50     13.96409   0  0.975
       655   1471.3784   4760.9116  18.1778   0.2618  19.1415   0.4076  18.1151   0.2544     3.710     2.958  23.98  6.72     13.86295   0  0.000
       656   5786.2163   4758.8633  18.5375   0.3090  20.2556   0.6809  18.3615   0.2852     3.976     1.662 -40.03  8.02     13.98169   0  0.000
       657   1248.0840   4760.3965  18.7638   0.3427  19.3821   0.4553  18.5818   0.3158     2.443     2.299  45.32  6.01     13.83755   0  0.020
       658   7059.1948   4770.3955  18.6983   0.3323  18.7432   0.3392  18.5616   0.3128     2.126     1.920 -29.67  3.50     13.93404   0  0.978
       659   7518.6616   4772.8638  19.2213   0.4232  19.9993   0.6050  18.9990   0.3832     2.128     1.960 -56.21  6.38     13.92958   0  0.054
       660   7081.7280   4785.6416  19.9946   0.6044  20.9415   0.9338  19.6222   0.5122     2.103     1.296  11.52  6.18     13.93012   0  0.001
       661   5644.7002   4813.5806  14.3974   0.0458  14.3879   0.0456  14.3718   0.0453     2.601     2.390 -33.28  3.50     13.98542   0  0.999
       662   2951.6455   4786.6118  20.2907   0.6927  21.2999   1.1013  20.1912   0.6689     1.631     1.165 -43.74  6.33     13.91333   0  0.058
       663   2192.2000   4790.6230  18.5038   0.3038  18.5499   0.3103  18.4871   0.3022     2.197     1.934 -32.65  3.50     13.88034   0  0.979
       664   1888.7540   4793.6904  20.0894   0.6312  20.7593   0.8586  19.9252   0.5903     1.762     1.427 -27.74  5.68     13.87605   0  0.066
       665   8120.4131   4802.7886  19.9707   0.5972  20.1817   0.6580  20.0110   0.6145     1.746     1.546 -26.52  3.73     13.88462   0  0.886
       666    856.1974   4817.6270  20.2430   0.6772  20.5901   0.7942  20.2318   0.6819     1.690     1.410 -18.30  4.33     13.80824   0  0.720
       667    935.5099   4841.9922  20.4282   0.7375  20.8720   0.9043  20.2106   0.6751     1.550     1.237 -21.66  4.61     13.81501   0  0.662
       668   1315.2180   4874.8257  15.3266   0.0703  15.3236   0.0702  15.3010   0.0695     2.592     2.324 -36.54  3.50     13.84671   0  0.987
       669   6458.1670   4866.9028  19.2820   0.4353  20.4356   0.7397  18.8235   0.3532     2.160     1.754 -84.08  7.02     13.96079   0  0.002
       670   2926.6492   4878.4839  20.7609   0.8599  21.4325   1.1706  20.5809   0.8047     1.329     1.016   2.87  5.55     13.89663   0  0.704
       671   8124.1099   4881.2461  18.8847   0.3621  18.9538   0.3738  18.8399   0.3559     2.147     1.895 -34.49  3.50     13.88039   0  0.974
       672   3462.3042   4884.1768  18.5046   0.3039  18.5505   0.3104  18.4368   0.2953     2.253     1.959 -31.01  3.50     13.91624   0  0.979
       673   3499.0122   4885.0498  20.1152   0.6388  20.8402   0.8912  20.0927   0.6386     1.687     1.318  -0.62  5.88     13.92255   0  0.328
       674   6869.0801   4888.5610  20.0988   0.6341  21.0162   0.9664  20.0732   0.6328     1.690     1.411  30.93  6.20     13.92665   0  0.001
       675   6051.9521   4896.3418  18.9982   0.3815  19.0551   0.3916  18.9300   0.3711     2.071     1.868 -48.39  3.50     13.97623   0  0.972
       676   7538.1729   4904.0972  18.9842   0.3793  19.3541   0.4495  18.8242   0.3533     2.896     2.112  83.86  4.82     13.91692   0  0.007
       677   3809.7046   4906.5601  18.7289   0.3370  18.7850   0.3458  18.6812   0.3306     2.134     1.893 -33.47  3.50     13.92985   0  0.976
       678   6518.9346   4923.4414  16.4978   0.1206  16.5057   0.1210  16.4886   0.1201     2.404     2.192 -30.45  3.50     13.96077   0  0.985
       679   8385.4453   4998.1426  15.7271   0.0846  16.0688   0.0990  16.0207   0.0968    13.024     7.380  19.95  5.08     13.86613   0  0.000
       680    398.6958   4939.3291  19.2687   0.4325  19.8819   0.5732  19.0508   0.3925     2.308     1.847 -65.53  5.75     13.81607   0  0.058
       681   7834.1299   4946.7749  19.6626   0.5182  19.8150   0.5557  19.6674   0.5231     1.957     1.703 -32.26  3.61     13.88565   0  0.910
       682    150.3782   4950.4775  20.5478   0.7795  21.0656   0.9886  20.4495   0.7559     1.549     1.202 -48.97  5.11     13.82559   0  0.635
       683   6144.5327   4971.2310  20.2892   0.6918  20.6807   0.8280  20.1161   0.6457     1.583     1.315 -41.60  4.61     13.96663   0  0.683
       684   6471.9722   4987.5732  16.2863   0.1094  16.2915   0.1097  16.2577   0.1080     2.420     2.230 -31.49  3.50     13.96631   0  0.986
       685   8463.7285   4996.1133  17.6494   0.2052  19.2929   0.4371  17.9135   0.2318     6.125     2.175  -3.05  8.08     13.86062   0  0.000
       686   1503.1503   5005.2520  19.2707   0.4326  19.3717   0.4531  19.2608   0.4328     2.020     1.784 -32.58  3.59     13.85162   0  0.964
       687   7652.6660   5004.6528  19.4533   0.4708  19.8934   0.5762  19.3500   0.4511     2.189     1.826  -3.21  4.98     13.89979   0  0.177
       688    417.2752   5006.5024  20.1376   0.6454  22.1707   1.6448  20.0410   0.6232     1.044     1.016 -85.45  8.68     13.81361   0  0.392
       689   8377.6777   5048.8770  20.0039   0.6065  20.2570   0.6812  19.4989   0.4835     1.755     1.581 -27.97  4.36     13.86903   0  0.831
       690   7507.5547   5091.8433  20.9178   0.9245  21.9440   1.4816  20.8245   0.9041     1.059     0.904 -15.32  6.56     13.88174   0  0.543
       691   7584.6870   5101.9131  20.4889   0.7589  21.9200   1.4653  19.9869   0.6076     1.500     0.755 -46.68  7.51     13.88698   0  0.251
       692   6065.6426   6002.9556  11.4759   0.0119  11.5401   0.0123  13.3621   0.0285   199.874    21.307  -0.35  3.50     20.00171  16  0.050
       693   3991.4458   5106.1333  18.3949   0.2889  18.4382   0.2947  18.2679   0.2731     2.213     1.949 -34.24  3.50     13.93237   0  0.980
       694   7206.4863   5103.7241  18.9971   0.3813  19.0861   0.3972  18.9576   0.3759     2.075     1.864 -29.30  3.50     13.89738   0  0.970
       695   7625.2598   5109.5464  18.9058   0.3659  19.6240   0.5090  18.6234   0.3219     2.457     2.057 -74.42  6.16     13.90367   0  0.100
       696   2475.1399   5114.4062  20.8464   0.8946  21.6345   1.2848  20.7693   0.8805     1.244     0.980 -17.76  5.94     13.89695   0  0.668
       697   8288.0703   5128.8159  16.4188   0.1163  16.4247   0.1166  16.3878   0.1147     2.466     2.236 -39.26  3.50     13.86828   0  0.983
       698   8482.9805   5120.2891  19.2323   0.4253  19.8432   0.5631  19.2401   0.4286     2.534     2.263 -67.10  5.15     13.86402   0  0.000
       699    429.6323   5120.7090  19.3592   0.4506  19.4748   0.4751  19.3231   0.4455     1.994     1.809 -40.70  3.60     13.81281   0  0.958
       700    695.7341   5127.6221  18.1858   0.2626  18.6075   0.3187  18.1657   0.2605     4.699     2.489  -9.43  5.04     13.83026   0  0.001
       701   7938.3896   5124.3374  19.6341   0.5118  20.2569   0.6812  19.4787   0.4790     2.315     1.719  22.04  5.38     13.87167   0  0.003
       702   7712.6934   5147.4741  17.6210   0.2023  17.6451   0.2046  17.5897   0.1996     2.333     2.098 -38.54  3.50     13.89218   0  0.982
       703   3753.9053   5159.2681  20.3106   0.6986  20.6269   0.8077  20.3634   0.7257     1.591     1.418 -26.41  4.16     13.90604   0  0.731
       704   5711.9277   5169.2500  16.8897   0.1445  16.9017   0.1453  16.8616   0.1427     2.431     2.193 -39.01  3.50     14.10127   0  0.984
       705   6784.9570   5172.2124  19.9355   0.5877  20.1692   0.6542  19.9512   0.5975     1.773     1.583 -54.18  4.32     13.93696   0  0.903
       706   4422.3047   5186.6206  17.1090   0.1598  17.1249   0.1610  17.0816   0.1579     2.404     2.145 -38.09  3.50     13.94526   0  0.983
       707   1111.4658   5191.3633  19.0430   0.3895  19.1270   0.4048  19.0343   0.3895     2.133     1.849 -32.49  3.50      13.8428   0  0.973
       708   1595.4680   5193.8330  19.0478   0.3907  19.6431   0.5135  18.8412   0.3561     3.359     2.052 -23.49  5.45     13.86965   0  0.000
       709   5775.6074   5203.0435  19.5316   0.4878  19.6695   0.5197  19.4446   0.4714     1.906     1.700 -28.98  3.75     14.11162   0  0.953
       710    888.4926   5217.3555  17.7222   0.2120  17.9319   0.2335  17.5977   0.2004     3.958     2.661  -4.45  4.51     13.82382   0  0.028
       711   1453.5302   5215.4897  20.7029   0.8374  21.9245   1.4683  20.5926   0.8092     1.159     0.872 -43.20  7.15     13.85574   0  0.637
       712   1966.3292   5219.3398  19.7443   0.5386  20.6791   0.8275  19.4148   0.4649     2.409     1.358  85.70  6.37     13.87324   0  0.001
       713   1578.1143   5219.0576  19.4660   0.4737  20.1852   0.6591  19.1500   0.4110     2.643     1.508 -45.30  5.86     13.87392   0  0.004
       714   5644.5034   5219.5645  20.3005   0.6954  20.6993   0.8351  20.0785   0.6344     1.488     1.433 -21.12  4.69     14.11739   0  0.694
       715   6281.2798   5222.5317  19.4627   0.4730  20.1543   0.6498  19.3908   0.4598     2.669     1.762  24.08  5.59     14.09179   0  0.004
       716   8237.3340   5255.3838  14.2646   0.0431  14.2554   0.0429  14.2382   0.0426     2.648     2.416 -39.44  3.50     13.87706   0  0.991
       717   6928.7632   5232.9868  20.1532   0.6500  20.9017   0.9168  20.0808   0.6350     1.664     1.439  88.54  5.60     13.92934   0  0.053
       718    991.5463   5238.6323  20.4909   0.7592  20.9705   0.9462  20.7871   0.8880     1.558     1.202 -37.48  4.72     13.84476   0  0.307
       719   6381.5781   5266.1367  20.7468   0.8543  21.3346   1.1190  20.8475   0.9142     1.281     1.170 -47.20  5.09     14.07508   0  0.655
       720    812.6813   5280.8789  20.0223   0.6116  20.1877   0.6598  20.1224   0.6476     1.801     1.585 -20.78  3.68     13.82505   0  0.860
       721   4170.4404   5312.6074  13.9781   0.0378  13.9670   0.0376  13.9538   0.0374     2.691     2.430 -39.04  3.50     13.94747   0  1.000
       722   1782.2526   5280.8438  19.2956   0.4376  19.5371   0.4890  19.3012   0.4410     2.203     2.041 -22.07  3.96     13.88044   0  0.023
       723   1987.4141   5287.3066  19.5266   0.4867  19.6367   0.5119  19.4965   0.4830     1.898     1.750 -21.98  3.76     13.87851   0  0.961
       724   1638.1158   5294.0347  17.7296   0.2127  17.7519   0.2149  17.6973   0.2098     2.324     2.052 -27.14  3.50      13.8771   0  0.982
       725    425.5241   5291.9683  20.0946   0.6328  20.8510   0.8956  20.1064   0.6427     1.756     1.373 -62.50  5.83     13.80674   0  0.002
       726   3763.1729   5298.3618  19.3166   0.4422  19.9951   0.6039  19.2820   0.4370     2.569     1.798 -32.83  5.77     13.91319   0  0.000
       727   4067.0198   5330.5283  19.3861   0.4562  19.4938   0.4793  19.0928   0.4002     1.985     1.778 -31.73  3.50     13.93069   0  0.969
       728   1821.4340   5356.3696  20.9354   0.9319  21.7131   1.3321  20.9847   0.9767     1.111     0.971 -41.37  5.78     13.88736   0  0.541
       729   1645.8184   5405.1333  14.0645   0.0393  14.0537   0.0391  14.0388   0.0389     2.697     2.443 -38.78  3.50     13.88845   0  1.000
       730   6937.4370   5392.6958  15.8666   0.0902  15.8665   0.0902  15.8334   0.0888     2.483     2.265 -36.43  3.50     13.94597   0  0.987
       731   7326.6880   5380.9805  19.4927   0.4792  19.6133   0.5064  19.3891   0.4594     1.933     1.754 -47.46  3.50     13.89896   0  0.955
       732     63.9422   5385.6016  19.0498   0.3909  19.4875   0.4779  18.9924   0.3820     2.565     2.057 -13.05  5.20     13.87371   0  0.016
       733   1572.6073   5401.3638  20.4517   0.7460  22.1535   1.6317  20.1358   0.6517     1.059     0.907 -44.21  8.22      13.8869   0  0.356
       734    195.8487   5407.2358  19.3395   0.4465  19.4538   0.4705  18.8610   0.3594     1.981     1.735 -20.79  3.78     13.86782   0  0.964
       735   1928.5726   5422.1592  18.4701   0.2992  18.5720   0.3135  18.4440   0.2963     2.721     2.598 -69.12  3.57     13.88082   0  0.017
       736   1031.6292   5421.1626  20.2636   0.6840  21.0781   0.9944  20.1606   0.6594     1.520     1.314  21.12  5.98       13.849   0  0.201
       737    601.6283   5439.1689  18.6146   0.3199  19.1462   0.4084  18.4786   0.3010     3.486     2.044 -49.75  5.52     13.82949   0  0.017
       738    196.7996   5429.5796  19.9071   0.5805  20.8531   0.8965  19.5123   0.4866     2.281     1.207 -26.40  6.19     13.86936   0  0.002
       739   7184.3574   5437.6406  17.0969   0.1589  17.1156   0.1603  17.0797   0.1578     2.387     2.165 -38.47  3.50     13.92149   0  0.983
       740   1534.2772   5435.7314  19.6736   0.5213  20.6071   0.8005  19.2115   0.4229     1.780     1.629 -67.99  6.63      13.8808   0  0.166
       741   6929.5957   5448.0098  17.7808   0.2178  17.8119   0.2209  17.6746   0.2076     2.303     2.075 -33.71  3.50     13.96666   0  0.982
       742   1241.0150   5462.7466  15.6207   0.0805  15.6194   0.0805  15.5931   0.0795     2.567     2.307 -37.35  3.50     13.88021   0  0.988
       743    186.5833   5459.5923  17.8806   0.2280  17.9160   0.2317  17.8171   0.2217     2.344     2.126 -33.36  3.50     13.87188   0  0.981
       744   6039.6772   5457.8740  18.5682   0.3132  19.0598   0.3925  18.4279   0.2941     3.443     2.443  -7.72  5.31      14.2505   0  0.005
       745   6901.3384   5457.2646  19.6749   0.5215  20.1865   0.6595  19.0904   0.3998     2.167     1.619 -46.93  5.50     13.97381   0  0.078
       746   1034.1152   5456.7783  19.1014   0.4001  19.1999   0.4186  19.0413   0.3908     2.057     1.823 -34.64  3.62      13.8533   0  0.966
       747   3424.5728   5456.7769  19.9799   0.6001  20.5172   0.7680  19.9682   0.6023     1.774     1.597 -27.24  5.13     13.94351   0  0.161
       748   4410.2407   5491.1245  15.8517   0.0896  15.8527   0.0896  15.8241   0.0884     2.530     2.279 -37.92  3.50     13.95572   0  0.985
       749   4351.4590   5479.4180  20.2699   0.6858  20.7441   0.8526  19.4605   0.4749     1.505     1.390 -28.73  5.21     13.86639   0  0.544
       750   6915.4976   5479.6436  20.4046   0.7296  20.7376   0.8500  19.9640   0.6011     1.496     1.377 -26.09  4.50     13.97569   0  0.659
       751   4225.1162   5484.6738  19.2430   0.4275  21.2668   1.0847  99.0000  99.0000     1.699     1.509  28.33  8.67      13.8612   0  0.008
       752     35.2218   5497.3994  20.1480   0.6481  20.4245   0.7359  20.0802   0.6349     1.677     1.483  -8.34  3.86     13.88778   0  0.793
       753   4328.6050   5500.5024  19.7872   0.5490  20.0238   0.6118  20.6929   0.8489     1.828     1.658 -21.32  4.63     13.81081   0  0.919
       754   4232.0396   5524.5376  19.1164   0.4029  19.1999   0.4186  99.0000  99.0000     2.071     1.847 -40.17  3.73     13.84906   0  0.970
       755   6965.0137   5548.7588  19.3334   0.4456  21.2737   1.0882  19.1917   0.4191     1.774     1.218 -10.85  8.63     13.95069   0  0.023
       756   5790.1538   5553.1987  20.3254   0.7035  20.7901   0.8708  20.0242   0.6184     1.612     1.297 -22.03  4.86     14.28572   0  0.614
       757    844.6202   5559.9175  17.3385   0.1776  17.3568   0.1791  17.3019   0.1748     2.418     2.151 -37.62  3.50     13.86041   0  0.982
       758    911.8066   5554.5044  20.1407   0.6465  21.1221   1.0147  20.1461   0.6549     1.598     1.393 -56.68  6.51     13.86011   0  0.001
       759   5224.1860   5582.7319  18.6665   0.3276  19.0483   0.3904  18.4850   0.3019     2.509     2.344 -39.03  5.21     14.09369   0  0.091
       760   7562.3022   5580.0747  20.5890   0.7947  21.6164   1.2741  20.3972   0.7374     1.220     1.077 -60.45  6.64     13.88728   0  0.352
       761   7431.6577   5580.4619  19.7561   0.5415  20.6079   0.8008  19.6775   0.5256     2.001     1.647 -85.38  6.09      13.8973   0  0.001
       762   6322.5435   5585.9243  20.4454   0.7434  20.9052   0.9182  20.4970   0.7732     1.485     1.236 -13.55  4.83     14.29889   0  0.719
       763   4490.5537   5625.7246  18.0617   0.2478  18.1038   0.2527  17.9751   0.2385     2.252     2.022 -27.92  3.50     13.96853   3  0.981
       764   4480.7988   5631.5503  17.5631   0.1970  17.5905   0.1995  17.5054   0.1920     2.430     2.101 -29.97  3.50     13.96943   3  0.982
       765   7893.8154   5634.0933  19.5156   0.4842  19.6360   0.5117  19.5273   0.4900     1.965     1.672 -30.57  3.64     13.87866   0  0.956
       766   6048.7329   5643.5244  17.0985   0.1590  17.1126   0.1601  17.0577   0.1562     2.401     2.170 -38.79  3.50     14.47381   0  0.984
       767   2861.6084   5636.4878  19.5548   0.4931  19.7142   0.5305  19.4781   0.4789     1.941     1.694 -39.78  3.83     13.95495   0  0.941
       768   4802.4722   5654.6284  17.1555   0.1633  17.1721   0.1645  17.1276   0.1613     2.391     2.158 -36.13  3.50     13.97516   0  0.983
       769   7658.4312   5648.2817  19.8192   0.5569  19.9859   0.6012  19.7178   0.5356     1.795     1.620 -20.57  3.62     13.88637   0  0.929
       770   3273.9863   5655.9453  19.3121   0.4409  19.3923   0.4574  19.1206   0.4054     2.012     1.779 -31.57  3.65     13.93349   0  0.960
       771   2802.5862   5726.5913  13.8631   0.0358  13.8500   0.0356  13.8345   0.0354     3.169     2.885 -53.97  3.50     13.97149   0  1.000
       772   5594.1040   5677.3276  20.0669   0.6244  20.2950   0.6932  20.0762   0.6337     1.697     1.519 -24.42  4.15     14.24569   0  0.804
       773   2743.0850   5683.1504  20.7557   0.8577  21.3528   1.1284  20.6513   0.8322     1.243     1.141 -24.19  4.95     13.95713   0  0.675
       774   1060.4686   5691.8076  16.9067   0.1456  16.9195   0.1465  16.8690   0.1432     2.452     2.183 -33.00  3.50      13.8664   0  0.983
       775   5698.3984   5686.3857  20.9260   0.9279  21.7443   1.3514  23.1997   3.1256     1.117     0.967 -42.10  5.96     14.30666   0  0.497
       776   6404.7119   5699.8706  16.0912   0.1000  16.0938   0.1001  16.0553   0.0984     2.474     2.252 -33.18  3.50     14.35107   0  0.988
       777    478.1513   5845.0713  13.6068   0.0319  13.5868   0.0316  13.5764   0.0314     4.470     3.442  88.04  3.50     13.88581   0  0.999
       778   6597.1147   5707.7461  20.7377   0.8507  21.3138   1.1083  20.3606   0.7247     1.341     1.108 -35.81  5.08     14.18779   0  0.666
       779   6980.5918   5724.1240  19.1127   0.4022  19.1962   0.4179  19.0276   0.3883     2.076     1.812 -32.19  3.54     13.98449   0  0.965
       780   6722.6606   5735.7964  18.6708   0.3285  19.6877   0.5242  18.6513   0.3261     3.355     2.261  56.87  6.58     14.12704   0  0.000
       781   6578.4604   5730.0049  19.9614   0.5951  20.7333   0.8483  19.7082   0.5332     1.691     1.429 -61.22  6.08     14.21462   0  0.104
       782    506.1946   5765.6592  20.8693   0.9041  21.8116   1.3939  20.6270   0.8226     1.135     0.898 -26.02  6.45     13.86899   0  0.505
       783    159.4208   5781.7427  20.6456   0.8156  21.6749   1.3089  20.4390   0.7522     1.238     1.019 -41.28  6.48     13.83765   0  0.562
       784   7631.9575   5799.4111  16.5252   0.1221  16.5327   0.1226  16.4879   0.1201     2.442     2.201 -33.05  3.50     13.89063   0  0.988
       785   3282.8547   5790.3081  20.6848   0.8303  21.3714   1.1381  20.4533   0.7573     1.295     1.098 -20.82  5.62     13.93127   0  0.625
       786   1880.9371   5803.2886  20.9044   0.9189  21.9698   1.4993  21.2169   1.0933     1.062     0.925 -29.57  6.61     13.89831   0  0.642
       787   7836.0737   5812.1235  20.7325   0.8489  21.4694   1.1907  20.7093   0.8556     1.259     1.134 -26.91  5.80     13.88024   0  0.635
       788   6162.9897   5813.4053  20.1046   0.6353  20.4080   0.7303  19.7202   0.5362     1.652     1.449 -12.53  4.42     15.04289   0  0.782
       789   1307.5513   5819.5142  17.1051   0.1595  17.1204   0.1607  17.0761   0.1575     2.436     2.153 -33.99  3.50     13.89224   0  0.983
       790   7311.2319   5821.7632  17.0099   0.1527  17.0262   0.1538  16.9525   0.1488     2.407     2.191 -40.46  3.50     13.90954   0  0.983
       791   4569.4453   5816.9126  19.2399   0.4267  19.7209   0.5322  19.0851   0.3988     2.224     2.003  11.98  5.31     13.98291   0  0.076
       792     61.0300   5821.3125  19.4372   0.4676  21.0483   0.9809  19.2321   0.4270     2.435     1.117  70.34  7.99     13.82994   0  0.007
       793   1254.1473   5824.6030  19.8703   0.5703  20.1056   0.6353  19.7320   0.5392     1.880     1.581 -48.25  4.35     13.88855   0  0.842
       794   6686.3833   5852.2642  19.4989   0.4809  20.0966   0.6327  19.2280   0.4262     2.211     1.823 -68.55  5.62     14.17019   0  0.005
       795   1636.0706   5863.7559  20.3252   0.7033  20.6666   0.8226  20.3508   0.7214     1.644     1.330 -19.31  4.38     13.91186   0  0.735
       796    303.2897   5874.6987  18.4148   0.2916  18.4579   0.2974  18.3862   0.2884     2.266     1.983 -26.88  3.50     13.84986   0  0.979
       797   6886.3145   5884.8525  20.5170   0.7685  21.0675   0.9894  20.1287   0.6495     1.422     1.176 -21.04  5.22     14.03219   0  0.700
       798   6558.1489   5911.9131  20.2490   0.6789  20.5201   0.7690  22.1701   1.7666     1.672     1.413 -20.02  3.66      14.4086   0  0.769
       799   7530.4951   5911.5039  19.3624   0.4515  19.7287   0.5341  19.0954   0.4007     2.191     1.865  -2.97  5.01     13.90292   0  0.095
       800   1017.6312   5913.7124  20.0629   0.6233  20.2782   0.6879  20.1465   0.6550     1.766     1.533 -26.36  4.28     13.86102   0  0.853
       801   3095.9136   5920.7002  20.8844   0.9102  21.5018   1.2086  20.6722   0.8405     1.211     1.067 -22.30  5.10      13.9347   0  0.554
       802   8404.1025   5948.9106  16.7983   0.1385  16.8090   0.1392  16.7589   0.1361     2.454     2.186 -38.85  3.50     13.82252   0  0.983
       803   1258.1571   5953.5625  19.5448   0.4912  21.2786   1.0906  19.4029   0.4624     1.606     1.304  27.35  8.25     13.88101   0  0.006
       804   2396.4878   5959.0083  20.5019   0.7631  21.0137   0.9653  20.3080   0.7069     1.439     1.235  -6.26  5.11     13.92015   0  0.589
       805   2314.3948   5976.2598  17.1424   0.1623  17.1572   0.1634  17.1024   0.1594     2.405     2.155 -36.93  3.50     13.92347   0  0.983
       806   8138.2407   5967.7271  19.4981   0.4807  20.2127   0.6675  19.3514   0.4514     2.072     1.753 -25.15  6.12     13.85631   0  0.043
       807   7138.6426   5972.2490  19.0216   0.3857  19.0944   0.3988  18.9961   0.3827     2.090     1.857 -28.25  3.50     13.94692   0  0.970
       808   1473.6588   5972.3760  21.1298   1.0191  21.9276   1.4704  20.8980   0.9367     1.048     0.892 -42.69  5.54     13.90209   0  0.522
       809    283.2953   5979.7681  19.1084   0.4017  19.6987   0.5268  18.9739   0.3787     2.327     2.132 -36.86  5.74     13.83889   0  0.036
       810   3439.6707   5994.9697  20.5042   0.7639  20.9138   0.9218  20.4671   0.7623     1.493     1.232 -13.86  4.94      13.9257   0  0.698
       811    678.2207   6001.7700  20.0409   0.6168  20.2649   0.6837  20.1505   0.6562     1.725     1.491 -39.03  3.68     13.84884   0  0.828
       812   4829.2964   6007.7622  18.4984   0.3031  18.5622   0.3121  18.4277   0.2940     2.233     2.003 -40.37  3.61      13.9792   0  0.978
       813   2566.5059   6027.7070  19.3115   0.4412  20.5968   0.7967  18.7379   0.3394     2.149     1.514 -28.26  7.40     13.93383   0  0.002
       814   2245.5000   6036.6826  20.7237   0.8452  21.2357   1.0692  20.5465   0.7916     1.341     1.156  -1.98  4.96     13.91173   0  0.615
       815   5035.2241   6038.0469  20.8161   0.8818  21.3189   1.1109  20.8874   0.9319     1.342     1.045 -46.08  4.64     14.02082   0  0.609
       816    461.2714   6039.0811  19.7611   0.5426  20.4891   0.7581  19.5003   0.4838     1.805     1.634 -33.03  6.05      13.8436   0  0.104
       817   2582.7417   6045.9023  18.4871   0.3017  19.2530   0.4290  18.1458   0.2581     2.940     2.404 -14.55  6.38     13.93674   0  0.005
       818   4189.9985   6047.1763  20.7450   0.8534  21.2194   1.0611  20.6066   0.8146     1.323     1.106 -33.69  4.48     13.95396   0  0.540
       819    566.8013   6048.0737  20.6777   0.8275  21.2612   1.0818  20.4069   0.7408     1.365     1.186 -20.27  5.00     13.84566   0  0.660
       820   2962.4316   6054.7095  20.5015   0.7630  21.0535   0.9831  20.5975   0.8111     1.491     1.197 -34.98  5.08     13.93794   0  0.610
       821   7311.7622   6086.1230  17.3376   0.1775  17.3559   0.1791  17.3150   0.1759     2.355     2.142 -38.03  3.50     13.94477   0  0.983
       822   2037.0569   6081.9458  20.0454   0.6182  20.3375   0.7070  19.8106   0.5594     1.772     1.489 -42.93  4.26     13.89405   0  0.750
       823   7197.0747   6094.8901  19.6219   0.5086  19.8080   0.5539  19.6075   0.5087     1.904     1.641 -10.06  4.04     13.96297   0  0.948
       824   6979.1821   6096.9395  18.4719   0.2994  18.5083   0.3044  18.4327   0.2947     2.200     1.977 -34.20  3.50     14.00865   0  0.978
       825   6101.8325   6096.1562  18.9966   0.3815  19.8446   0.5634  17.9151   0.2320     2.045     1.786 -20.79  6.70     17.17416   0  0.799
       826    855.8813   6095.5625  20.8418   0.8927  21.6222   1.2775  20.8602   0.9198     1.244     0.980 -15.45  5.85     13.85156   0  0.620
       827   1725.6139   6116.1821  20.2797   0.6888  20.6286   0.8084  20.3344   0.7158     1.789     1.321 -12.99  4.44     13.93117   0  0.578
       828   3556.9326   6129.2534  18.2511   0.2704  18.2908   0.2754  18.2277   0.2680     2.231     1.982 -31.93  3.50     13.94159   0  0.980
       829   7421.9595   6149.4805  20.4913   0.7594  20.9630   0.9430  20.5627   0.7977     1.406     1.307 -69.08  4.86     13.93206   0  0.581
       830   2783.8818   6171.3096  14.9938   0.0603  14.9875   0.0602  14.9666   0.0596     2.596     2.343 -37.46  3.50      13.9294   0  0.989
       831   5984.5723   6149.9438  19.1609   0.4113  19.3327   0.4450  18.5401   0.3097     2.081     1.818 -30.51  4.36     15.46252   0  0.964
       832   3925.0054   6227.7490  13.4568   0.0297  13.4431   0.0295  13.4299   0.0294     3.700     3.281 -87.14  3.50     13.98595   0  1.000
       833   1011.0791   6172.6001  18.4797   0.3005  18.5302   0.3075  18.4621   0.2987     2.272     1.965 -33.78  3.50     13.86749   0  0.975
       834   1301.7112   6174.1953  20.7413   0.8521  21.3062   1.1045  20.8197   0.9020     1.340     1.158  -6.30  5.02     13.88947   0  0.581
       835    194.3949   6177.7075  19.4865   0.4783  20.6654   0.8223  19.4322   0.4687     2.427     1.448 -81.60  6.87     13.82918   0  0.001
       836   3261.3386   6197.1777  15.0939   0.0632  15.0885   0.0630  15.0669   0.0624     2.572     2.324 -36.47  3.50     13.94582   0  0.991
       837   7838.3125   6182.0728  19.9200   0.5835  20.1627   0.6523  19.8092   0.5590     1.866     1.548 -17.74  4.06     13.89167   0  0.885
       838   8328.5479   6234.1040  18.1366   0.2568  18.6319   0.3223  18.1008   0.2528     5.427     3.129  81.52  4.93     13.83366   0  0.000
       839   3162.2117   6204.6445  19.9313   0.5868  20.6266   0.8077  19.6042   0.5079     1.929     1.385 -21.11  5.62     13.93763   0  0.137
       840   8012.0586   6221.2349  19.6330   0.5116  21.5170   1.2172  19.3706   0.4555     1.490     1.167 -51.64  8.57     13.86332   0  0.109
       841   2396.6523   6246.7534  14.7282   0.0534  14.7215   0.0532  14.7021   0.0528     2.617     2.358 -37.64  3.50     13.90969   0  0.997
       842   8415.2021   6242.9966  17.6574   0.2057  17.6840   0.2083  17.6103   0.2015     2.367     2.111 -32.19  3.50     13.82864   0  0.982
       843   3490.3567   6310.7192  15.7645   0.0861  16.4210   0.1164  16.1860   0.1045     9.463     7.390  -3.96  6.19     14.08189   0  0.005
       844   8481.5605   6241.6294  18.9071   0.3659  18.9777   0.3779  18.8725   0.3613     2.154     1.847 -24.22  3.50     13.82113   0  0.976
       845    437.3928   6244.2202  19.9334   0.5871  20.1606   0.6516  19.8536   0.5708     1.803     1.528 -26.00  4.06     13.82889   0  0.880
       846    904.0074   6266.4937  15.4116   0.0731  15.4089   0.0730  15.3810   0.0721     2.588     2.316 -35.06  3.50     13.87759   0  0.985
       847    280.0410   6256.0200  19.9951   0.6040  20.2522   0.6797  19.9331   0.5924     1.772     1.485 -39.86  4.13     13.82788   0  0.827
       848   6441.4795   6267.0845  17.0362   0.1545  17.0513   0.1556  17.0136   0.1530     2.389     2.172 -36.47  3.50     14.35044   0  0.983
       849   4811.2358   6524.3140  14.8640   0.0573  12.3475   0.0178  15.9593   0.0941   375.392    15.124   0.91  3.50     8.080049   1  0.000
       850   2917.2231   6261.8286  19.4138   0.4621  19.5267   0.4866  19.3580   0.4528     2.006     1.743 -36.37  3.68     13.91403   0  0.956
       851   2323.8862   6524.6392  11.3244   0.0111  11.1482   0.0103  16.0918   0.1001  1298.010    13.136  -0.16  3.50     7.818668  17  0.000
       852   2875.3484   6265.5225  19.8210   0.5579  21.5635   1.2435  19.6810   0.5265     1.727     0.998 -11.41  8.22     13.91717   0  0.008
       853   7903.3823   6269.2656  19.7271   0.5343  20.8108   0.8792  19.5489   0.4949     1.944     1.347 -64.39  6.85     13.87754   0  0.004
       854   2750.3835   6271.9795  19.2766   0.4338  19.3901   0.4570  19.2379   0.4282     2.044     1.819 -44.17  3.63     13.91963   0  0.960
       855   7281.2451   6281.9033  19.1426   0.4082  19.8816   0.5731  19.0677   0.3956     2.607     2.104  -7.33  5.93     13.95844   0  0.000
       856    660.6404   6282.6699  19.8960   0.5770  20.1082   0.6361  19.6548   0.5200     1.828     1.554 -25.24  3.78     13.85729   0  0.909
       857   3140.2952   6292.7402  18.3911   0.2886  18.6696   0.3279  18.2599   0.2721     3.059     2.525 -12.71  4.76     13.93452   0  0.034
       858   7667.2207   6289.9331  19.9472   0.5908  20.1518   0.6490  19.9256   0.5904     1.787     1.553 -20.56  3.60      13.9099   0  0.920
       859   3751.1482   6314.0669  19.3246   0.4439  20.2393   0.6757  19.2475   0.4301     2.426     1.765 -51.43  6.38     13.93629   0  0.003
       860   6432.8672   6325.2090  20.9498   0.9382  21.9035   1.4542  20.3770   0.7304     1.126     0.856 -11.09  6.39     14.29108   0  0.580
       861   2575.6477   6374.6279  20.2770   0.6880  20.6579   0.8194  19.8893   0.5804     1.563     1.359 -19.36  4.91     13.91796   0  0.743
       862    156.2509   6376.8452  19.7639   0.5434  20.6399   0.8126  19.5153   0.4872     1.685     1.649  18.10  6.50     13.86409   0  0.030
       863   1506.5470   6393.5532  19.0415   0.3892  19.1417   0.4076  18.8047   0.3501     2.115     1.840 -26.74  3.69      13.8953   0  0.972
       864    397.8966   6404.0908  19.6318   0.5109  19.8185   0.5566  19.3149   0.4438     1.928     1.675 -25.54  4.06     13.84456   0  0.921
       865   2568.9919   6413.4824  16.6470   0.1292  16.6559   0.1297  16.6085   0.1270     2.497     2.190 -40.38  3.50     13.91317   0  0.984
       866   4870.0317   6648.3853  12.2225   0.0169  11.8242   0.0140  15.4062   0.0730   367.155    16.506  -0.87  3.50     5.057694   1  0.000
       867   2239.0593   6648.8335  10.4492   0.0074  10.5529   0.0078  15.5033   0.0763  1289.763    15.418   0.15  3.50       5.2158  17  0.000
       868   8321.7939   6428.5361  18.2933   0.2757  18.3382   0.2815  18.2679   0.2731     2.231     1.974 -30.52  3.50     13.83824   0  0.980
       869   4755.8838   6432.2007  18.1293   0.2557  18.1668   0.2601  18.6484   0.3257     2.261     2.019 -34.18  3.50     13.95572   0  0.979
       870   8213.8682   6449.5742  17.4284   0.1852  17.7602   0.2157  17.3251   0.1767     4.168     3.420 -25.03  5.06     13.86953   0  0.024
       871   7876.4634   6472.9009  17.9318   0.2337  18.6283   0.3218  17.9130   0.2318     4.812     3.209 -42.43  5.70     13.88469   2  0.000
       872   5225.8052   6460.5615  18.1418   0.2572  18.2844   0.2746  19.5755   0.5011     3.014     2.805 -14.36  3.50     14.06658   0  0.031
       873   7882.6172   6459.5381  19.7551   0.5412  20.7331   0.8483  18.8120   0.3513     1.789     1.514 -66.26  6.71     13.88514   3  0.032
       874   8313.1172   6469.7764  18.7845   0.3462  19.6085   0.5054  18.7416   0.3400     3.186     2.930  61.57  5.85      13.8382   0  0.000
       875    794.8286   6478.3252  18.5391   0.3088  18.5186   0.3059  99.0000  99.0000     2.140     1.856 -39.72  3.50     13.86472   0  0.977
       876     92.1969   6490.2920  18.0644   0.2483  18.4639   0.2983  18.5656   0.3134     4.083     2.721 -20.32  5.20     13.83833   0  0.011
       877   7133.1353   6491.2949  19.2913   0.4372  21.0553   0.9841  19.0846   0.3987     1.880     1.547   3.42  8.10     13.95911   0  0.001
       878   3929.6597   6491.4502  18.9980   0.3815  19.0230   0.3859  99.0000  99.0000     2.032     1.786 -26.42  3.50     13.93103   0  0.974
       879   4704.9746   6499.1455  19.7289   0.5346  20.6189   0.8048  99.0000  99.0000     1.671     1.454 -17.54  6.58     13.50948   0  0.602
       880   2078.1479   6591.9556  12.2221   0.0169  12.1403   0.0162  16.7374   0.1347  1196.057     8.127   0.00  3.50   0.01439847  16  0.000
       881   6757.0757   6667.6787  17.0459   0.1552  17.0628   0.1564  16.9426   0.1481     2.387     2.180 -33.08  3.50     13.87624   0  0.983
       882   7338.8970   6672.9053  20.5612   0.7842  21.0016   0.9599  19.7594   0.5461     1.344     1.216 -46.76  5.07     13.90963   0  0.591
       883   7260.4058   6674.2383  20.2593   0.6824  20.6501   0.8164  19.6958   0.5301     1.584     1.344 -27.95  4.98     13.91084   0  0.705
       884   2372.5500   6685.6592  19.8851   0.5746  21.0349   0.9747  99.0000  99.0000     1.498     1.307 -29.07  7.15     13.24092   0  0.671
       885   8112.7070   6773.2681  17.1877   0.1658  17.4719   0.1889  17.0566   0.1561     3.998     3.503  57.98  5.01     13.92463   0  0.031
       886   6988.7637   6756.9321  18.9073   0.3659  18.9817   0.3786  18.8206   0.3527     2.119     1.866 -31.72  3.50     13.96058   0  0.971
       887   2712.7102   6769.2271  18.4365   0.2946  18.5326   0.3079  18.0511   0.2470     2.244     1.988 -35.37  4.01     13.90366   0  0.978
       888   4791.9443   6776.9590  19.3290   0.4446  19.7321   0.5349  18.5284   0.3081     2.070     1.741 -35.68  5.46     13.96242   0  0.923
       889   8271.5059   6780.2344  18.9910   0.3805  19.5436   0.4905  18.7857   0.3471     2.616     2.186 -25.51  5.56     13.86202   0  0.018
       890   5566.8716   6819.4175  13.8815   0.0361  13.8702   0.0360  13.8551   0.0357     2.996     2.744 -40.75  3.50      14.0631   0  1.000
       891     96.1848   6793.7905  18.7894   0.3469  19.7791   0.5467  18.4447   0.2963     3.179     2.276 -37.56  6.53     13.86899   0  0.003
       892   8354.3086   6810.0801  18.2082   0.2652  18.3475   0.2827  18.1350   0.2568     3.464     2.171 -51.73  3.84     13.87706   0  0.056
       893   8402.9072   6868.7129  13.9435   0.0372  13.9202   0.0368  13.8985   0.0364     4.836     4.241 -71.53  3.50     13.89961   0  0.257
       894   3668.6692   6815.0005  16.7311   0.1343  16.7416   0.1349  16.6749   0.1309     2.475     2.204 -41.23  3.50     13.90664   0  0.983
       895   5780.5254   6838.6348  14.5028   0.0481  14.4943   0.0479  14.4770   0.0476     2.606     2.392 -38.39  3.50     14.07613   0  0.999
       896   6732.1343   6817.7524  19.1084   0.4014  19.1871   0.4162  19.0277   0.3883     2.029     1.824 -33.03  3.50     13.98506   0  0.972
       897   6365.3164   6830.0557  19.7811   0.5473  19.9731   0.5977  19.8832   0.5787     1.822     1.547 -31.73  4.12     14.04037   0  0.952
       898   5962.0459   6851.1025  15.2728   0.0686  15.2695   0.0685  15.2446   0.0677     2.547     2.332 -41.01  3.50     14.07581   0  0.987
       899   8414.5898   6833.6875  19.1038   0.4007  19.3493   0.4484  18.1612   0.2599     2.052     1.846 -16.89  4.96      13.8818   0  0.968
       900   5950.4175   6834.6333  20.3927   0.7258  20.9295   0.9285  19.5100   0.4860     1.504     1.243 -22.82  5.62     14.08613   0  0.686
       901   1191.3690   6834.5068  19.9390   0.5886  20.0965   0.6327  20.6274   0.8227     1.839     1.598 -37.01  3.73     13.87428   0  0.894
       902   8046.1230   6836.4785  19.6511   0.5154  19.7814   0.5472  19.6355   0.5154     1.904     1.629 -30.54  3.50     13.91317   0  0.949
       903   2245.8804   6844.4365  18.3746   0.2863  18.4134   0.2914  18.4983   0.3038     2.224     1.961 -28.38  3.50     13.89167   0  0.979
       904   8251.4854   6858.5127  20.9494   0.9379  21.6536   1.2961  20.6332   0.8250     1.082     1.061 -37.57  5.53     13.86223   0  0.604
       905   7694.7173   6874.8662  15.7862   0.0869  15.7858   0.0869  15.7572   0.0858     2.491     2.255 -31.01  3.50      13.9481   0  0.990
       906   3166.2629   6867.2935  20.6129   0.8031  21.0571   0.9848  21.4990   1.2561     1.415     1.227 -34.82  4.57     13.91859   0  0.654
       907   2144.1379   6881.7876  20.2161   0.6688  20.5205   0.7691  20.1766   0.6644     1.691     1.466 -32.51  4.09     13.88666   0  0.757
       908   3066.5413   6912.4956  14.8308   0.0560  14.8244   0.0558  14.8040   0.0553     2.628     2.363 -40.29  3.50     13.91827   0  0.995
       909   5922.8247   6909.6074  15.7181   0.0842  15.7178   0.0842  15.6900   0.0832     2.521     2.296 -41.94  3.50     14.03493   0  0.985
       910   8030.5552   6905.4160  19.4452   0.4691  19.8858   0.5742  19.0573   0.3937     2.302     1.808  -0.20  5.28     13.91256   0  0.074
       911   7091.3608   6913.3408  20.3086   0.6982  20.9498   0.9373  19.8188   0.5615     1.531     1.376 -42.16  5.35     13.92421   0  0.148
       912   1090.8645   6913.2275  20.0383   0.6167  21.6485   1.2932  19.7485   0.5433     1.637     0.988   6.09  7.78     13.88313   0  0.102
       913   3756.9219   6917.5737  19.0913   0.3986  19.7874   0.5488  19.0075   0.3847     3.806     1.703 -16.18  5.56     13.90489   0  0.000
       914   8130.1846   6930.7974  15.9631   0.0943  15.9651   0.0944  15.9271   0.0927     2.483     2.241 -30.81  3.50     13.88691   0  0.984
       915   8043.0151   6931.5215  18.9706   0.3769  19.4583   0.4716  18.8118   0.3513     2.665     2.058  79.54  5.44      13.9095   0  0.028
       916   7384.9648   6963.3721  20.3623   0.7155  20.8728   0.9046  20.2116   0.6754     1.515     1.361 -36.01  4.79     13.93848   0  0.691
       917   5326.4849   6985.9360  15.9155   0.0922  15.9159   0.0922  15.8783   0.0907     2.536     2.285 -44.02  3.50     13.95819   0  0.985
       918   7866.4277   6979.4053  19.8773   0.5726  20.9895   0.9546  19.7796   0.5513     1.599     1.479  47.13  6.93      13.9418   0  0.010
       919   4617.4365   7013.6367  13.8911   0.0363  13.8802   0.0361  13.8665   0.0359     2.768     2.516 -42.46  3.50      13.9284   0  1.000
       920   5317.1196   7007.4683  18.3915   0.2885  18.4404   0.2951  18.1982   0.2644     2.205     1.986 -34.30  3.55     13.95167   0  0.978
       921   4906.1719   7034.0322  14.8633   0.0568  14.8569   0.0566  14.8363   0.0561     2.609     2.367 -41.88  3.50     13.94344   0  0.998
       922    837.8041   7019.9717  17.7006   0.2099  17.7288   0.2126  17.6745   0.2076     2.381     2.106 -36.08  3.50     13.87048   0  0.982
       923   3690.5339   7031.2485  20.9064   0.9196  21.8747   1.4350  20.7264   0.8626     1.040     0.982 -21.03  6.27     13.88175   0  0.494
       924   1919.9607   7072.7847  19.6065   0.5049  19.7224   0.5325  19.5295   0.4905     1.880     1.665 -15.27  3.54     13.88435   0  0.950
       925   5364.3325   7073.6406  19.8849   0.5741  20.0786   0.6275  19.7421   0.5417     1.837     1.582 -31.57  3.83     13.91994   0  0.902
       926   7128.9707   7090.3652  16.8918   0.1446  16.9017   0.1453  16.8759   0.1436     2.387     2.188 -33.76  3.50     13.93043   0  0.986
       927   5323.0034   7082.3125  20.2211   0.6708  21.3042   1.1036  20.3893   0.7346     1.570     1.221 -73.00  6.60     13.92617   0  0.014
       928   3927.6306   7092.2529  20.1807   0.6584  21.0034   0.9607  20.0781   0.6342     1.566     1.406 -25.21  6.08     13.90088   0  0.018
       929   4609.1812   7103.9976  20.2913   0.6928  21.3479   1.1259  19.9811   0.6060     1.305     1.286 -88.26  6.60     13.91121   0  0.106
       930    195.7259   7124.9976  15.5857   0.0792  15.5844   0.0792  15.5595   0.0783     2.580     2.349 -34.82  3.50     13.85438   0  0.988
       931   8318.3828   7179.4233  13.8116   0.0350  13.7994   0.0348  13.7845   0.0346     3.107     2.822 -33.57  3.50     13.86601   0  1.000
       932   7918.5337   7156.5923  17.4842   0.1900  17.5067   0.1919  17.4504   0.1872     2.342     2.101 -34.09  3.50     13.92634   0  0.982
       933   5126.7832   7156.1182  20.6768   0.8272  21.2610   1.0817  20.8673   0.9229     1.351     1.193 -18.70  5.17     13.94874   0  0.662
       934   3577.9656   7163.0073  20.0660   0.6243  20.4022   0.7283  19.9068   0.5852     1.764     1.578 -36.74  4.63     13.89319   0  0.129
       935   3370.4917   7169.9937  17.8651   0.2264  17.8946   0.2295  17.8351   0.2236     2.326     2.066 -38.05  3.50     13.89455   0  0.981
       936   6861.2173   7169.9893  20.5612   0.7842  21.0352   0.9749  20.5696   0.8004     1.466     1.170 -27.49  4.72     13.94356   0  0.683
       937   7136.2573   7196.9819  19.2162   0.4222  19.9320   0.5866  19.2592   0.4324     3.073     1.818 -27.26  5.73     13.95516   0  0.000
       938   7771.0425   7202.9102  20.0890   0.6312  21.0524   0.9827  19.4123   0.4644     1.673     1.273  85.30  6.60     13.91429   0  0.061
       939   1310.6122   7214.9282  20.2200   0.6700  20.4706   0.7517  19.9941   0.6097     1.697     1.499 -28.74  4.09     13.86184   0  0.719
       940   5462.1226   7218.0581  20.2089   0.6666  20.4984   0.7613  20.1820   0.6661     1.635     1.467 -24.61  4.15     13.93108   0  0.736
       941   2562.0354   7229.4946  20.6782   0.8277  21.4262   1.1672  20.8537   0.9169     1.316     0.970 -23.28  5.73      13.8884   0  0.610
       942   2316.2236   7239.8428  17.6250   0.2027  17.6459   0.2046  17.5732   0.1981     2.387     2.110 -41.26  3.50     13.89396   0  0.982
       943   8266.4902   7240.9062  20.6682   0.8238  21.2085   1.0559  20.7324   0.8650     1.408     1.137 -29.09  4.86     13.86527   0  0.600
       944   8078.3179   7245.5200  19.4465   0.4692  19.7995   0.5518  19.3919   0.4600     2.116     1.938 -76.59  4.59     13.91132   0  0.121
       945   2087.1729   7288.7163  20.1359   0.6446  20.3909   0.7245  20.1538   0.6573     1.683     1.464 -34.98  4.35     13.88873   0  0.789
       946   8035.5518   7292.1201  20.5444   0.7784  21.8267   1.4037  20.1940   0.6698     1.110     0.997 -69.01  7.19     13.91723   0  0.646
       947    567.4933   7298.9907  20.4390   0.7415  21.1477   1.0267  20.1313   0.6503     1.476     1.250  -1.85  5.80     13.86594   0  0.265
       948   7467.6274   7300.7739  20.5272   0.7720  20.9440   0.9348  20.5648   0.7985     1.479     1.290 -19.79  4.80     13.98769   0  0.660
       949   2425.8896   7317.1216  17.6680   0.2067  17.6926   0.2091  17.6290   0.2033     2.307     2.079 -34.94  3.50     13.90402   0  0.982
       950   2552.7642   7321.1045  20.2273   0.6723  20.5606   0.7834  20.2693   0.6941     1.675     1.413 -38.91  4.25     13.90265   0  0.692
       951   1409.8501   7331.3442  18.6532   0.3258  19.9816   0.6002  18.5633   0.3131     2.799     2.197  78.82  7.42     13.86809   0  0.003
       952   5704.6626   7329.7681  19.5698   0.4969  20.1928   0.6614  19.5408   0.4931     2.086     1.989 -30.73  5.48     13.92829   0  0.001
       953   7341.2388   7466.4160  14.3150   0.0441  14.3919   0.0457  14.4526   0.0470    11.192    10.357 -57.56  3.99     14.28567   0  0.029
       954   4617.0576   7362.1572  15.3152   0.0700  15.3119   0.0698  15.2853   0.0690     2.598     2.336 -44.63  3.50      13.8956   0  0.985
       955   2300.3823   7368.2461  16.4363   0.1172  16.4416   0.1175  16.4031   0.1155     2.461     2.278 -41.60  3.50     13.90403   0  0.984
       956    751.1332   7367.7192  17.0291   0.1540  17.0431   0.1550  16.9905   0.1514     2.427     2.193 -34.27  3.50     13.87998   0  0.983
       957   2833.9744   7375.6792  18.9159   0.3678  20.3544   0.7126  18.8963   0.3653     4.293     1.368 -19.77  7.42     13.89395   0  0.000
       958    599.9965   7389.2515  19.7983   0.5520  22.0713   1.5713  19.4347   0.4693     1.475     0.840  43.86  8.85     13.85796   0  0.080
       959   4868.0132   7396.0439  19.5472   0.4914  19.6899   0.5246  19.4852   0.4805     1.980     1.729 -42.48  4.00     13.91682   0  0.925
       960   7834.6753   7424.9277  14.4005   0.0459  14.3920   0.0457  14.3757   0.0454     2.629     2.397 -36.07  3.50     13.92699   0  0.989
       961   3288.3784   7401.9917  19.9037   0.5791  20.1141   0.6378  19.7657   0.5477     1.814     1.564 -33.67  4.05     13.89908   0  0.908
       962   3977.9148   7410.2134  20.3015   0.6961  21.3239   1.1136  20.3717   0.7285     1.436     1.289  65.38  6.43     13.89268   0  0.005
       963   7509.2871   7411.2173  20.1175   0.6391  20.4281   0.7371  20.0406   0.6231     1.652     1.486  -6.33  4.29     14.02067   0  0.849
       964   2739.5713   7433.6309  18.8583   0.3580  19.3178   0.4420  18.8477   0.3572     3.218     2.551 -76.73  4.87     13.91715   0  0.000
       965   1952.6663   7440.5034  20.0252   0.6124  20.2451   0.6775  19.9550   0.5986     1.765     1.509 -30.19  3.78     13.88088   0  0.880
       966   5989.9912   7442.8672  18.4754   0.2999  18.5211   0.3062  18.4486   0.2969     2.199     1.973 -37.67  3.50      13.9072   0  0.979
       967   4170.4238   7441.7812  20.1759   0.6567  20.7310   0.8474  19.9165   0.5879     1.628     1.422 -33.41  5.21      13.8707   0  0.706
       968   8154.7974   7452.2427  20.1462   0.6481  21.5249   1.2216  19.6233   0.5124     1.453     1.128 -27.48  7.28     13.88277   0  0.028
       969   1094.4315   7476.3071  15.3506   0.0711  15.3475   0.0710  15.3216   0.0702     2.587     2.349 -37.97  3.50     13.88207   0  0.997
       970   4809.3789   7466.6401  18.8191   0.3517  19.8594   0.5673  18.8221   0.3530     4.883     1.468  -1.76  6.45      13.9081   0  0.004
       971   2578.4355   7467.1143  20.2188   0.6701  21.7813   1.3747  19.9717   0.6033     1.253     0.997 -74.32  7.92     13.90121   0  0.168
       972   7600.6675   7471.8965  18.0068   0.2417  18.0421   0.2456  18.0112   0.2425     2.277     2.051 -32.25  3.50     13.96789   0  0.981
       973   5254.1313   7481.3960  20.0548   0.6213  20.9040   0.9177  19.9258   0.5904     1.610     1.385 -24.37  6.43     13.93295   0  0.584
       974   5348.4985   7496.7173  20.1941   0.6623  20.8517   0.8959  19.8741   0.5763     1.591     1.400 -32.56  5.51     13.93978   0  0.453
       975   2713.2075   7510.4321  18.6957   0.3321  19.3317   0.4449  18.3989   0.2901     2.474     2.327  79.09  6.06     13.92717   0  0.030
       976   7190.4448   7548.9136  13.7057   0.0333  13.6946   0.0332  13.6814   0.0330     3.176     2.716 -33.06  3.50      14.0823   0  1.000
       977   3052.6113   7521.8853  18.8483   0.3561  18.9183   0.3677  18.8551   0.3584     2.170     1.909 -35.75  3.53     13.89267   0  0.976
       978   6355.0122   7529.8472  19.7460   0.5390  20.7128   0.8404  19.8204   0.5619     1.924     1.670  44.88  6.24     13.90365   0  0.000
       979   6191.1265   7542.2485  19.2216   0.4229  19.3065   0.4397  19.1342   0.4080     1.982     1.790 -22.99  3.56     13.89107   0  0.971
       980   3001.2993   7549.0308  18.4091   0.2909  18.4486   0.2962  18.3366   0.2819     2.213     2.013 -35.92  3.50     13.89289   0  0.978
       981   1660.7625   7546.8452  20.1625   0.6525  20.4725   0.7523  20.1240   0.6481     1.669     1.474 -37.26  4.34     13.86252   0  0.750
       982   4349.4043   7549.3940  19.9744   0.5988  21.1066   1.0075  19.2211   0.4248     1.545     1.395 -40.38  7.15     13.71272   0  0.001
       983   3447.5151   7551.5957  19.1905   0.4169  19.2882   0.4360  19.1517   0.4113     2.030     1.804 -18.43  3.50     13.89935   0  0.966
       984   5653.1670   7553.7896  20.3406   0.7088  21.5022   1.2089  20.0294   0.6199     1.287     1.198 -18.04  7.04     13.91871   0  0.231
       985   1258.4910   7562.5220  19.2298   0.4245  19.3314   0.4448  19.1257   0.4064     2.074     1.849 -26.66  3.67     13.86852   0  0.966
       986   8505.3428   7563.3867  19.8146   0.5563  21.6488   1.2934  99.0000  99.0000     1.725     1.002  37.53  8.21     13.61057   0  0.047
       987   8047.2744   7568.4634  20.3376   0.7074  20.6801   0.8278  20.3962   0.7371     1.582     1.372  -9.92  4.49      13.9032   0  0.690
       988    425.0236   7578.7959  19.9339   0.5877  20.8677   0.9025  19.5857   0.5035     1.879     1.386 -52.05  6.41     13.85943   0  0.002
       989   4818.0327   7599.7041  19.4391   0.4679  20.2892   0.6914  18.8142   0.3517     1.955     1.828 -18.07  6.43     13.90602   0  0.037
       990   2630.7664   7612.7324  20.7607   0.8597  21.3636   1.1341  20.7000   0.8518     1.224     1.168 -34.61  5.16     13.90615   0  0.580
       991   3094.6821   7616.9180  19.2459   0.4280  19.8479   0.5643  19.2420   0.4290     2.583     2.222 -72.03  5.25      13.8843   0  0.002
       992   1312.3463   7625.2808  18.2020   0.2644  18.2381   0.2688  18.2133   0.2663     2.371     2.041 -45.19  3.50      13.8768   0  0.979
       993   3509.5901   7629.7114  18.8786   0.3611  18.9504   0.3732  18.8046   0.3501     2.157     1.878 -34.54  3.50     13.88558   0  0.974
       994   4763.1582   7637.6289  17.6691   0.2068  17.6906   0.2089  17.5772   0.1985     2.295     2.072 -32.18  3.50     13.89542   0  0.982
       995   1694.9009   7644.1162  17.6027   0.2006  17.6297   0.2031  17.5443   0.1955     2.441     2.136 -42.51  3.50     13.86769   0  0.981
       996     34.8491   7665.3418  15.3041   0.0696  15.2769   0.0687  16.1079   0.1008     2.743     2.456 -77.15  3.50     13.13571   0  0.984
       997   1852.3688   7645.6880  20.3265   0.7038  20.7172   0.8421  20.1812   0.6658     1.594     1.372 -25.88  4.57     13.87824   0  0.704
       998   3709.6392   7648.3955  20.6259   0.8082  21.1564   1.0309  20.5302   0.7855     1.446     1.265 -46.45  5.32     13.87189   0  0.675
       999   8206.8311   7661.7979  18.4783   0.3006  19.5192   0.4850  18.4254   0.2937     3.182     2.804  82.10  6.76     13.88365   0  0.000
      1000     10.4255   8233.8037  14.3643   0.0452  13.5223   0.0306  16.4204   0.1164   231.905     6.414 -90.00  3.50    -4.939453  25  0.000
      1001   8337.9932   7665.4204  19.7146   0.5311  20.3166   0.7002  19.6981   0.5307     1.969     1.684 -68.58  5.61     13.85699   0  0.061
      1002   6518.9590   7666.4570  19.5046   0.4822  21.5625   1.2430  19.3095   0.4427     1.494     1.227  71.95  8.79       13.898   0  0.021
      1003   1184.3843   7673.8877  16.9970   0.1518  17.0124   0.1529  16.9611   0.1494     2.425     2.191 -36.19  3.50     13.87531   0  0.983
      1004   7929.1270   7672.8672  18.4668   0.2987  18.5140   0.3052  18.4154   0.2924     2.192     1.961 -23.63  3.50     13.93263   0  0.977
      1005   2907.4319   7676.1084  20.2723   0.6865  20.6940   0.8331  20.1134   0.6449     1.574     1.409 -46.90  4.85     13.89652   0  0.691
      1006   7747.8223   7679.5117  19.6288   0.5102  19.7761   0.5459  19.5911   0.5048     1.888     1.678 -16.51  3.94     13.93443   0  0.949
      1007    845.3197   7681.8579  18.0752   0.2494  18.1134   0.2538  18.0190   0.2434     2.322     2.053 -33.56  3.50     13.86363   0  0.980
      1008   6301.2871   7693.2964  18.4939   0.3024  18.5432   0.3094  18.4955   0.3034     2.154     1.960 -27.42  3.50     13.89521   0  0.978
      1009    347.5784   7698.9180  20.2164   0.6694  21.0790   0.9948  20.0150   0.6157     1.541     1.358 -38.42  6.23     13.83987   0  0.017
      1010   2041.4165   7709.4565  19.8983   0.5781  20.7896   0.8707  19.5614   0.4978     1.793     1.465 -21.15  6.28     13.88789   0  0.002
      1011   2314.5398   7716.1191  19.7030   0.5283  20.3365   0.7067  19.5126   0.4866     1.945     1.585 -49.86  5.86     13.88952   0  0.288
      1012   6515.6416   7716.8862  20.4015   0.7289  21.2198   1.0614  20.3090   0.7072     1.620     1.158  30.38  5.85     13.90022   0  0.016
      1013   1817.0789   7718.4302  20.8241   0.8854  21.5496   1.2355  20.4539   0.7575     1.224     0.982 -16.18  5.93      13.8771   0  0.646
      1014   2068.2998   7722.0679  18.5416   0.3092  18.5885   0.3159  18.4244   0.2936     2.221     1.949 -39.37  3.50     13.88835   0  0.978
      1015   8512.7402   8087.3521  15.2872   0.0692  13.7272   0.0337  17.2930   0.1741   236.947     6.974 -89.32  3.50     6.943247  18  0.000
      1016   4545.6597   7724.2559  20.5424   0.7777  21.1128   1.0103  20.6030   0.8132     1.451     1.210 -31.64  5.55     13.88444   0  0.680
      1017    439.8376   8708.4004  14.5898   0.0501  14.2184   0.0422  16.8069   0.1391   135.903     8.493   0.81  3.50      6.32465  18  0.000
      1018     46.1613   8099.1182  12.7347   0.0213  12.7345   0.0213  15.6769   0.0826   226.645    13.787  88.67  3.50     2.848927  19  0.000
      1019   3628.2078   7726.3662  18.9331   0.3703  19.0011   0.3820  18.8716   0.3612     2.140     1.891 -46.83  3.50     13.87868   0  0.974
      1020   5071.5264   7729.8516  20.2267   0.6722  20.5574   0.7823  20.1038   0.6420     1.581     1.417 -55.05  4.79     13.90343   0  0.769
      1021   8257.1436   8385.7607  17.0730   0.1572  17.0896   0.1584  17.0302   0.1542     2.369     2.122 -24.18  3.50     13.93064   0  0.983
      1022   4666.6479   8719.5674  18.0071   0.2418  18.4235   0.2928  17.9778   0.2387     5.330     3.829  31.28  4.69     13.96415  16  0.000
      1023   1926.7504   8724.2676  20.5582   0.7830  20.9453   0.9353  20.3202   0.7070     1.412     1.180 -85.98  4.65     13.91763  16  0.523
      1024   4163.0488   8590.1396  18.3870   0.2879  18.4391   0.2949  18.2903   0.2759     2.186     1.985 -30.57  3.50     13.90598   3  0.980
      1025   4167.0347   8598.3447  18.7201   0.3357  18.7786   0.3448  18.5815   0.3157     2.138     2.085 -48.83  3.50     13.90556   3  0.980
      1026   1260.3837   8583.7744  20.7810   0.8680  21.4955   1.2051  20.4946   0.7723     1.220     1.129 -75.57  5.73     13.90463   0  0.677
      1027     92.4262   8563.7148  19.4374   0.4671  19.4982   0.4803  99.0000  99.0000     1.949     1.675 -12.04  3.50     12.81323   0  0.957
      1028   1267.1395   8234.8516  19.5439   0.4907  19.7136   0.5304  19.6083   0.5089     1.968     1.713 -36.10  3.94     13.89999   0  0.942
      1029   4385.6226   8252.6201  19.6135   0.5067  19.7878   0.5488  19.4660   0.4762     1.962     1.676 -39.46  4.09     13.88886   0  0.931
      1030   8268.8506   8247.5967  20.5679   0.7870  21.7382   1.3476  20.2232   0.6791     1.251     0.985 -15.48  7.20     13.91311   0  0.443
      1031   7931.5259   8468.2852  17.5731   0.1979  17.5971   0.2001  17.5130   0.1927     2.339     2.116 -27.49  3.50           14   0  0.982
      1032    551.3226   8260.7051  19.4500   0.4703  20.1979   0.6630  19.5056   0.4850     2.392     2.029 -12.82  5.55      13.8773   0  0.001
      1033     83.7585   8675.6807  13.7851   0.0346  13.6985   0.0332  14.6988   0.0527    30.850    23.711  54.47  3.50   0.01549288  19  0.001
      1034   1614.1173   8325.2705  19.9005   0.5787  20.9684   0.9454  19.7279   0.5381     1.621     1.438 -12.22  6.85     13.90032   0  0.485
      1035    119.5469   8320.1104  18.8757   0.3606  18.8658   0.3589  99.0000  99.0000     2.060     1.757 -25.31  3.50     13.89882   0  0.976
      1036   6760.3403   8322.0908  18.8285   0.3528  18.8838   0.3619  18.8196   0.3526     2.112     1.912 -33.33  3.50     13.89745   0  0.975
      1037   1949.6292   8520.5537  20.5659   0.7859  21.0799   0.9951  20.4102   0.7420     1.407     1.206 -21.07  4.99     13.90197   0  0.690
      1038   1476.2174   8514.8076  20.2426   0.6775  22.0120   1.5288  19.7597   0.5462     1.299     0.890   2.04  8.17     13.90691   0  0.389
      1039   2817.2634   8461.6338  19.3275   0.4441  19.4411   0.4678  19.2486   0.4303     1.986     1.822 -34.75  3.67     13.87927   0  0.966
      1040   3782.3687   8468.2285  15.6613   0.0820  15.6600   0.0820  15.6334   0.0810     2.542     2.314 -45.54  3.50     13.92137   0  0.984
      1041    671.4608   8311.5059  16.8233   0.1401  16.8348   0.1408  16.7833   0.1376     2.468     2.227 -34.65  3.50     13.89396   0  0.983
      1042   1506.3929   8463.8301  18.0411   0.2455  18.0741   0.2492  18.0210   0.2436     2.272     2.021 -31.26  3.50     13.90558   0  0.982
      1043   5476.2993   8417.9893  20.9516   0.9389  21.8339   1.4083  20.7692   0.8805     1.198     0.774  -0.90  6.33     13.85757   0  0.638
      1044   4705.7900   8323.7236  16.3009   0.1101  16.3053   0.1104  16.2680   0.1085     2.424     2.249 -36.67  3.50      13.8905   0  0.986
      1045   7157.3696   8301.6416  18.6580   0.3262  18.7221   0.3359  18.5897   0.3169     2.156     1.919 -26.41  3.50     13.90525   0  0.977
      1046   7729.3311   8293.9912  20.2093   0.6668  20.5413   0.7765  20.0534   0.6269     1.590     1.451 -41.41  4.60     13.92628   0  0.366
      1047   6698.3740   8266.6572  20.6615   0.8216  21.9757   1.5034  19.9804   0.6057     1.049     0.901 -42.80  7.50     13.88109   0  0.617
      1048   7818.0220   8266.2246  18.6099   0.3190  18.6559   0.3258  18.5671   0.3136     2.162     1.926 -23.64  3.50     13.95259   0  0.978
      1049   1873.4088   7945.4746  20.7248   0.8456  21.3626   1.1335  20.8312   0.9070     1.323     1.015  -5.56  5.28     13.87637   0  0.591
      1050   3957.5608   8346.1436  13.7576   0.0341  13.7423   0.0339  13.7261   0.0337     3.449     3.095 -64.90  3.50     13.94403   0  1.000
      1051   6388.2012   7978.2632  19.5152   0.4842  19.6211   0.5082  19.2611   0.4328     1.946     1.730 -23.04  3.69     13.85724   0  0.957
      1052   5544.1792   8364.4688  18.9391   0.3717  20.2777   0.6878  18.7743   0.3452     2.872     1.872 -51.63  7.27     13.86286   0  0.001
      1053   3350.7908   8147.5532  16.0058   0.0961  16.0074   0.0962  15.9785   0.0950     2.537     2.275 -44.49  3.50     13.90891   0  0.985
      1054   4692.3237   7827.6318  16.4958   0.1205  16.5020   0.1208  16.4651   0.1188     2.456     2.219 -39.16  3.50     13.89541   0  0.984
      1055   7806.7505   7887.4009  17.9001   0.2301  18.0873   0.2508  17.8600   0.2262     3.909     3.453  88.77  4.15      13.9379   0  0.012
      1056   4864.8340   8590.3994  15.8363   0.0889  15.8365   0.0889  15.8082   0.0878     2.519     2.281 -41.41  3.50     13.90892   0  0.985
      1057   6826.8262   8109.8325  20.3785   0.7212  21.6706   1.3064  20.0255   0.6187     1.270     1.098 -43.94  7.11     13.89834   0  0.378
      1058   5125.5542   8660.5195  19.4057   0.4603  19.5277   0.4868  19.4036   0.4625     1.955     1.697 -24.61  3.58      13.9041   0  0.962
      1059   6178.9258   7866.3101  18.5377   0.3086  18.5866   0.3156  18.4993   0.3039     2.189     1.959 -31.29  3.50     13.85772   0  0.975
      1060   6437.2505   8274.2285  15.5344   0.0774  15.5318   0.0773  15.5056   0.0764     2.526     2.317 -40.08  3.50     13.86185   0  0.987
      1061   7091.1255   7996.9927  17.9404   0.2344  17.9725   0.2379  17.9298   0.2336     2.244     2.063 -35.44  3.50     13.90497   0  0.981
      1062   3847.1785   8641.7832  19.2525   0.4290  19.3536   0.4493  19.0548   0.3932     1.974     1.815 -26.23  3.88      13.9259   0  0.971
      1063    407.0214   7859.0835  16.8932   0.1447  16.9073   0.1456  16.8731   0.1434     2.466     2.222 -34.56  3.50     13.84548   0  0.983
      1064   6698.7822   8341.7637  20.5958   0.7967  21.0483   0.9807  21.5794   1.3074     1.422     1.217   3.36  4.57     13.88989   0  0.560
      1065   6036.0522   8403.0889  20.1774   0.6575  21.2054   1.0545  19.9959   0.6102     1.577     1.308  84.38  6.44     13.84212   0  0.006
      1066   1977.6711   7866.8213  20.0643   0.6241  21.2589   1.0807  20.1083   0.6433     1.674     1.187 -15.92  7.18     13.88688   0  0.006
      1067   7048.7539   8699.9697  99.0000  99.0000  13.6314   0.0322  17.8700   0.2272   339.544     5.738  -0.64  0.00     8.038777  16  0.000
      1068   3067.3071   8473.4268  20.7655   0.8618  21.6145   1.2729  21.0509   1.0085     1.197     0.964 -29.15  6.13     13.89883   0  0.629
      1069   6091.0127   8408.5107  20.0419   0.6172  20.2745   0.6867  20.1935   0.6697     1.649     1.500  -8.41  4.19     13.84858   0  0.859
      1070   5067.1768   8314.0107  20.2540   0.6805  20.5246   0.7706  20.1589   0.6589     1.639     1.465 -24.05  3.68     13.87519   0  0.754
      1071    704.5546   8032.8848  15.8694   0.0903  15.8704   0.0903  15.8325   0.0888     2.549     2.312 -34.61  3.50     13.88013   0  0.985
      1072   3711.2961   8173.2788  17.8118   0.2210  18.1393   0.2569  17.5457   0.1956     4.174     2.685 -48.44  5.17     13.92405   0  0.029
      1073   6839.8989   8287.3320  20.0667   0.6243  20.3188   0.7009  19.9882   0.6080     1.653     1.453 -21.48  4.08     13.89899   0  0.833
      1074    952.9801   7914.6348  17.3054   0.1749  17.3224   0.1763  17.2626   0.1717     2.381     2.154 -32.41  3.50     13.87783   0  0.983
      1075   3355.4451   8625.2334  17.5376   0.1947  17.5594   0.1966  17.4995   0.1915     2.311     2.103 -33.43  3.50     13.91646   0  0.982
      1076   3450.3022   8153.2114  15.7443   0.0853  15.9301   0.0929  15.8913   0.0912    12.332     4.675  45.65  4.30     13.93625   0  0.028
      1077   5822.5972   8229.4766  16.6226   0.1277  16.6307   0.1282  16.5930   0.1261     2.432     2.223 -42.50  3.50     13.86978   0  0.984
      1078   7682.5835   8118.2256  20.7781   0.8669  22.0926   1.5866  20.4852   0.7688     1.087     0.819 -31.41  7.15     13.91091   0  0.557
      1079    531.1161   8064.3770  19.4809   0.4766  19.5909   0.5012  19.3608   0.4534     1.998     1.740 -23.96  3.50     13.86097   0  0.959
      1080   5087.9653   8133.4600  17.3495   0.1785  17.3651   0.1798  17.3344   0.1774     2.345     2.119 -36.89  3.50     13.88489   0  0.983
      1081   5611.2012   8041.8564  19.9878   0.6021  20.2934   0.6927  19.6896   0.5286     1.663     1.510 -41.30  4.69     13.87705   0  0.860
      1082   3262.9360   8382.0439  16.8552   0.1422  16.8655   0.1429  16.8221   0.1401     2.429     2.191 -41.63  3.50     13.89332   0  0.983
      1083   4475.4185   8045.4678  17.2420   0.1699  17.2593   0.1713  17.2190   0.1682     2.385     2.156 -41.64  3.50     13.88411   0  0.983
      1084   3753.3809   8643.1377  18.5453   0.3099  19.1024   0.4003  18.4996   0.3040     2.745     2.678  82.07  5.42     13.91979   0  0.016
      1085   7862.0068   8335.6777  20.5540   0.7820  21.8057   1.3903  20.1259   0.6487     1.150     1.106  -3.92  7.03     13.97287   0  0.254
      1086   5628.5493   8206.1709  20.0986   0.6339  20.8788   0.9072  19.7384   0.5408     1.829     1.277 -23.97  5.95     13.87713   0  0.043
      1087   1352.9791   8677.1533  18.1370   0.2566  18.1863   0.2625  18.0743   0.2497     2.321     2.033 -37.24  3.50     13.92007   0  0.980
      1088   5360.7334   8020.1099  16.6205   0.1276  16.6289   0.1281  16.5844   0.1256     2.422     2.206 -40.53  3.50     13.89251   0  0.983
      1089   5064.1343   8633.6514  15.0852   0.0629  15.0772   0.0627  15.0542   0.0620     2.632     2.378 -52.38  3.50     13.89636   0  0.991
      1090   8200.0889   8146.0386  20.3453   0.7102  20.9237   0.9261  20.3180   0.7103     1.556     1.358  17.86  5.46     13.90059   0  0.286
      1091   8003.6499   7807.0913  19.0376   0.3885  19.1209   0.4037  19.0138   0.3858     2.080     1.825 -23.37  3.50     13.92443   0  0.969
      1092   6789.8843   7753.5928  19.7237   0.5333  21.8956   1.4490  19.4557   0.4739     1.275     0.998 -14.65  8.85     13.91142   0  0.231
      1093   1060.4692   8401.5684  19.4427   0.4687  21.0857   0.9979  19.2775   0.4361     1.772     1.430  -2.89  7.97     13.88775   0  0.003
      1094   3436.2405   8010.2891  20.0811   0.6287  20.6488   0.8160  20.1240   0.6481     1.949     1.431 -14.83  4.98     13.89741   0  0.014
      1095   3161.1960   7881.1748  20.6406   0.8138  21.5542   1.2381  20.5896   0.8080     1.262     1.094 -46.86  6.25     13.88625   0  0.558
      1096   1499.0208   7941.8379  19.8584   0.5672  20.1096   0.6365  19.8236   0.5628     1.782     1.562 -40.93  4.16     13.86916   0  0.887
      1097   1820.6647   8157.9824  17.7561   0.2153  17.7833   0.2180  17.7002   0.2101     2.355     2.088 -39.16  3.50     13.89918   0  0.982
      1098   2114.1665   8034.9219  20.1944   0.6627  21.4179   1.1629  20.3199   0.7109     1.460     1.287  22.70  6.94     13.88424   0  0.003
      1099   6720.7515   7958.7163  20.6560   0.8194  21.3804   1.1429  20.6389   0.8272     1.223     1.168 -40.51  5.80     13.89513   0  0.557
      1100   8318.0127   8450.5117  20.6817   0.8292  22.1348   1.6177  20.6781   0.8429     1.094     0.805 -89.09  7.55     13.93369   0  0.489
      1101   2207.2019   7821.0029  20.6596   0.8207  21.2966   1.0996  20.6742   0.8413     1.328     1.117 -38.67  5.36     13.88618   0  0.588
      1102   2481.8167   7769.9702  14.6502   0.0515  14.6427   0.0513  14.6244   0.0509     2.654     2.393 -43.26  3.50     13.88736   0  0.997
      1103   1637.0190   7951.7998  19.8365   0.5614  20.0514   0.6197  19.6235   0.5125     1.801     1.553 -32.57  3.89     13.88902   0  0.936
      1104   3951.0095   8458.4980  19.8845   0.5744  21.8442   1.4152  19.4356   0.4695     1.366     0.984  23.90  8.40     13.93113   0  0.261
      1105   3775.9521   8700.5547  19.0995   0.4003  20.7186   0.8427  19.1778   0.4164     2.413     1.674  69.65  7.89     13.93636   0  0.001
      1106    874.0651   8442.8115  19.0700   0.3944  19.2908   0.4365  18.9766   0.3792     2.379     2.110 -31.47  4.14     13.89719   0  0.099
      1107   1637.5312   8626.4170  20.7272   0.8468  21.5503   1.2359  20.5026   0.7752     1.275     1.031  -1.91  5.96     13.92151   0  0.628
      1108   7190.8066   8027.8896  20.5174   0.7685  20.9473   0.9362  20.4474   0.7552     1.433     1.254  -6.97  4.66     13.91261   0  0.710
      1109    192.6744   7941.5723  17.8528   0.2251  17.8976   0.2298  17.5795   0.1987     2.348     2.137 -27.97  3.68     13.85561   0  0.981
      1110   1831.2903   8643.6211  16.5132   0.1215  16.5198   0.1218  16.4827   0.1198     2.462     2.223 -35.65  3.50     13.90772   0  0.984
      1111   1076.0165   8134.6270  19.4085   0.4609  19.5312   0.4876  19.3288   0.4467     2.028     1.759 -35.13  3.79     13.87339   0  0.960
      1112   4955.3823   8436.8604  17.1369   0.1619  17.1522   0.1630  17.1027   0.1595     2.391     2.174 -41.23  3.50     13.88147   0  0.983
      1113    705.6957   8011.0576  17.8998   0.2300  17.9295   0.2332  17.7670   0.2167     2.320     2.069 -29.82  3.50     13.87728   0  0.982
      1114   3841.0752   8341.2324  20.3150   0.7001  20.7146   0.8410  20.1215   0.6473     1.603     1.356 -41.80  4.67     13.92443   0  0.684
      1115   4377.5200   8610.8535  20.5138   0.7676  21.8036   1.3888  19.8383   0.5667     1.120     0.989  75.19  7.49     13.86246   0  0.643
      1116   8483.6074   8657.4609  14.8061   0.0554  14.5359   0.0489  15.0351   0.0615    21.467    17.788 -36.51  3.50     3.232632  18  0.000
      1117   4477.4375   8703.2197  15.5199   0.0769  15.5175   0.0768  15.4883   0.0758     2.532     2.309 -41.37  3.50     13.94231  16  0.987
      1118   6558.8608   8697.6270  18.1516   0.2585  20.1072   0.6359  99.0000  99.0000     2.571     1.975 -12.25  8.61     12.49731   0  0.002
      1119   3047.6924   8333.6328  19.7917   0.5502  20.2412   0.6763  19.7025   0.5318     1.878     1.703 -61.77  5.13     13.89427   0  0.091
      1120   2042.6512   8164.3501  20.4814   0.7562  21.1231   1.0152  20.2450   0.6862     1.434     1.259 -39.18  5.68     13.89575   0  0.621
      1121   6850.7681   8434.8652  19.7197   0.5325  20.9309   0.9292  19.5071   0.4854     1.950     1.272  11.34  7.21     13.89783   0  0.010
      1122   7821.7559   8230.3916  20.6177   0.8052  21.5028   1.2092  20.4768   0.7658     1.412     1.034  -6.32  6.18     13.95206   0  0.624
      1123    443.5707   8029.2920  18.7399   0.3387  18.8035   0.3488  18.6830   0.3309     2.199     1.947 -32.25  3.50     13.84695   0  0.974
      1124   3317.8640   8315.1797  20.2344   0.6745  20.5323   0.7733  20.1112   0.6442     1.680     1.444 -40.30  4.41     13.87763   0  0.658
      1125   1434.7644   8380.9209  20.4798   0.7555  21.0546   0.9836  20.2813   0.6980     1.471     1.218 -23.61  5.45     13.89911   0  0.700
      1126   1785.7150   7779.5156  20.7629   0.8609  21.9197   1.4651  20.4803   0.7671     1.022     1.007 -78.97  6.82     13.86624   0  0.611
      1127   4345.4590   8050.6436  17.4119   0.1839  18.3288   0.2803  17.4725   0.1891     5.583     3.898  77.07  6.58     13.70542   0  0.000
      1128   4460.7456   7832.2090  18.4443   0.2956  18.4899   0.3019  18.4080   0.2914     2.191     1.976 -35.74  3.50     13.88317   0  0.979
      1129   4207.2871   8098.1079  18.3536   0.2835  18.4043   0.2902  18.1885   0.2632     2.258     2.027 -41.69  3.50     13.82009   0  0.979
      1130   2865.4927   8660.7021  16.6579   0.1298  16.6674   0.1304  16.6357   0.1286     2.464     2.196 -42.55  3.50     13.92473   0  0.985
      1131   4228.9106   7949.4526  18.6047   0.3183  18.6746   0.3287  99.0000  99.0000     2.167     1.955 -43.40  3.86     13.71158   0  0.974
      1132   1105.5459   7971.3916  20.7213   0.8444  21.4464   1.1781  20.4566   0.7585     1.272     1.092 -27.65  5.58     13.87387   0  0.675
      1133   1707.5142   8641.0469  19.8557   0.5667  20.2925   0.6924  19.8912   0.5809     1.813     1.635 -26.14  5.05     13.92229   0  0.706
