#   1 NUMBER                 Running object number                                     
#   2 X_IMAGE                Object position along x                                    [pixel]
#   3 Y_IMAGE                Object position along y                                    [pixel]
#   4 MAG_AUTO               Kron-like elliptical aperture magnitude                    [mag]
#   5 MAGERR_AUTO            RMS error for AUTO magnitude                               [mag]
#   6 MAG_ISO                Isophotal magnitude                                        [mag]
#   7 MAGERR_ISO             RMS error for isophotal magnitude                          [mag]
#   8 MAG_APER               Fixed aperture magnitude vector                            [mag]
#   9 MAGERR_APER            RMS error vector for fixed aperture mag.                   [mag]
#  10 A_IMAGE                Profile RMS along major axis                               [pixel]
#  11 B_IMAGE                Profile RMS along minor axis                               [pixel]
#  12 THETA_IMAGE            Position angle (CCW/x)                                     [deg]
#  13 KRON_RADIUS            Kron apertures in units of A or B                         
#  14 BACKGROUND             Background at centroid position                            [count]
#  15 FLAGS                  Extraction flags                                          
#  16 CLASS_STAR             S/G classifier output                                     
         1   1460.9092     49.1157  14.4917   0.0478  13.0830   0.0250  14.1061   0.0400    31.498    29.039 -10.05  3.50     28.82207  16  0.029
         2   8470.3105     49.5000  16.1843   0.1042  15.3516   0.0709  15.5904   0.0792    17.282    12.927  23.98  3.50     4.992175  18  0.000
         3   8498.6875     11.2185  16.2770   0.1087  16.2615   0.1079  16.3541   0.1126    16.987     7.235   4.07  3.50    -3.191164  27  0.000
         4    433.9550     55.5740  12.8914   0.0229  12.7007   0.0209  15.6045   0.0797   209.743    11.440  -0.89  3.50     5.092211  17  0.000
         5   3242.0396     54.5054  13.7697   0.0342  13.7457   0.0339  13.7294   0.0336     5.039     4.506 -80.31  3.50      14.1187   0  0.787
         6   1574.2616     53.9290  17.7455   0.2139  19.5632   0.4936  17.5890   0.1990     4.308     2.197  84.35  8.57     20.25829   2  0.000
         7   1578.6399     33.0041  99.0000  99.0000  18.9826   0.3777  99.0000  99.0000     7.820     3.274 -86.41  0.00     20.74165  18  0.000
         8   6821.0137     33.7864  17.4545   0.1869  17.9128   0.2308  17.1906   0.1656     7.186     4.146 -81.47  3.50     13.91747  16  0.000
         9   6226.5244     24.4630  21.4809   1.1939  21.8056   1.3860  99.0000  99.0000     0.891     0.888 -68.16  3.50     13.90901  16  0.657
        10    366.0053     10.5697  99.0000  99.0000  13.5975   0.0316  16.3794   0.1139   208.190     6.509  -0.02  0.00    -4.787626  25  0.000
        11   2887.0762      9.7077  20.5567   0.7800  20.8991   0.9130  99.0000  99.0000     1.392     1.208 -77.38  3.50     13.92916  16  0.576
        12   8310.3545     54.0601  18.7696   0.3430  19.3022   0.4376  18.2930   0.2755     4.451     2.140  72.88  6.72     13.52222   0  0.000
        13   4595.1841     31.2024  19.8490   0.5634  20.3670   0.7146  19.8059   0.5566     2.206     1.569 -13.29  5.23     13.90044   0  0.002
        14   7962.0361     41.5446  18.4725   0.2989  19.4189   0.4618  99.0000  99.0000     3.225     2.253 -38.81  6.79     13.63676   0  0.000
        15   2336.7400     38.4613  20.9605   0.9401  21.7832   1.3718  21.0160   0.9888     1.025     0.979 -79.84  5.98     14.38348   0  0.484
        16   7664.8589     91.7432  19.8621   0.5665  20.0172   0.6082  19.6872   0.5265     1.778     1.532 -75.00  4.03     13.90186   0  0.903
        17   3148.0779    119.0270  15.1290   0.0640  15.1219   0.0638  15.0963   0.0631     2.470     2.186 -75.01  3.50     13.98471   0  0.992
        18   2780.5928     98.4498  21.2204   1.0588  21.2230   1.0598  99.0000  99.0000     1.098     0.834 -44.60  3.50     13.99213   0  0.715
        19   7027.5117     99.6646  20.0968   0.6315  20.7196   0.8406  19.9929   0.6076     1.609     1.456 -88.65  5.57     13.91857   0  0.171
        20   3282.5015    103.0147  18.2294   0.2670  18.2690   0.2719  18.0118   0.2419     2.173     1.908 -76.94  3.50     14.00175   0  0.979
        21   8492.2549    118.4723  20.0739   0.6245  21.2571   1.0768  99.0000  99.0000     3.543     0.721 -89.28  3.50     10.97127   0  0.008
        22   6461.5635    113.1371  20.5816   0.7891  20.8124   0.8773  20.5645   0.7961     1.364     1.339 -55.06  3.79     13.89165   0  0.589
        23   3716.4507    114.0438  19.4237   0.4628  19.4890   0.4769  19.3161   0.4428     1.906     1.647 -73.95  3.50     13.89097   0  0.954
        24   4929.1562    169.8052  14.0047   0.0381  13.9880   0.0379  13.9665   0.0375     3.566     3.156 -80.12  3.50     13.94184   0  1.000
        25    277.4730    125.7657  19.9752   0.5967  19.9582   0.5919  99.0000  99.0000     1.695     1.372 -86.91  3.50     14.04571   0  0.902
        26   4707.7070    133.3528  19.2613   0.4297  19.6052   0.5031  19.2851   0.4364     2.354     2.255  44.40  4.63     13.90573   0  0.009
        27   3998.3469    174.5833  13.9545   0.0373  13.9411   0.0370  13.9265   0.0368     2.604     2.341 -76.11  3.50     13.89124   0  1.000
        28   7272.0913    138.6628  21.1056   1.0043  21.1242   1.0127  20.9132   0.9408     1.123     0.911 -30.38  3.50     13.92642   0  0.707
        29   2436.5950    157.4872  17.4785   0.1889  17.4972   0.1905  17.4610   0.1876     2.250     1.966 -74.61  3.50     14.19341   0  0.983
        30   3813.7058    153.0600  19.7028   0.5269  21.2710   1.0837  19.4896   0.4801     1.699     1.284  79.87  7.93     13.88558   0  0.003
        31   4735.1494    153.9495  20.5080   0.7626  20.5851   0.7900  20.4722   0.7619     1.130     1.078 -54.32  3.50     13.90537   0  0.802
        32   7405.5747    170.1166  17.3171   0.1754  17.3331   0.1767  17.2716   0.1719     2.250     1.951 -79.47  3.50     13.93845   0  0.983
        33   1433.0919    166.4576  19.6209   0.5072  21.0354   0.9722  17.8002   0.2194     1.509     1.245 -79.16  7.64     19.20496   0  0.660
        34   5523.7339    170.3021  18.5277   0.3063  18.5781   0.3135  18.4808   0.3005     2.048     1.788 -80.87  3.50     13.91541   0  0.974
        35   7945.7148    170.0269  19.1563   0.4092  19.2326   0.4237  19.1726   0.4142     1.941     1.655 -75.41  3.50     13.96234   0  0.962
        36   1173.0571    172.7688  20.6253   0.8054  21.0580   0.9823  20.3879   0.7321     1.415     1.157 -71.25  4.88     15.76886   0  0.572
        37   7130.3022    186.1112  20.8307   0.8851  21.2490   1.0726  20.6288   0.8209     1.277     1.093  75.41  4.36     13.92992   0  0.537
        38    304.7035    197.3925  20.0222   0.6100  20.3567   0.7112  18.9045   0.3657     1.674     1.427 -84.99  4.90     14.04246   0  0.832
        39   2966.3125    197.0889  20.0941   0.6308  21.9837   1.5047  19.9405   0.5928     1.918     0.604  64.31  8.62     13.95686   0  0.089
        40   6118.0049    198.9187  19.0601   0.3914  19.1268   0.4036  18.9600   0.3752     1.925     1.739 -83.35  3.50     13.89489   0  0.959
        41   1298.6978    200.7299  20.4187   0.7326  21.2795   1.0879  19.5705   0.4985     1.308     1.258 -84.44  6.27     16.34914   0  0.689
        42   6965.9917    207.0623  19.7862   0.5474  20.5665   0.7834  19.3962   0.4596     1.800     1.514 -46.23  6.24     13.91767   0  0.589
        43   7455.1772    218.4022  17.4953   0.1904  17.5108   0.1917  17.4408   0.1858     2.245     1.918 -78.89  3.50      13.9441   0  0.982
        44    986.1664    229.6280  17.4407   0.1857  17.4608   0.1874  17.3872   0.1813     2.288     1.956 -77.60  3.50     14.88464   0  0.982
        45   6425.6030    220.8656  19.4294   0.4640  19.4299   0.4640  19.3077   0.4410     1.740     1.121  -7.07  3.50     13.88714   0  0.916
        46   8465.2109    254.2442  15.7629   0.0857  15.7587   0.0856  15.8571   0.0895     2.289     2.008 -76.76  3.50     13.83077   0  0.984
        47   8124.0889    231.5746  20.6110   0.8004  21.5141   1.2120  20.2206   0.6764     1.232     1.117  61.82  6.39     13.94251   0  0.659
        48    787.8954    235.1082  20.4845   0.7551  21.3764   1.1375  20.0730   0.6309     1.311     1.203 -49.57  6.31     14.54015   0  0.243
        49   6729.6987    242.4545  18.9913   0.3795  19.4496   0.4684  18.9477   0.3731     3.696     1.866  43.75  4.89     13.90227   0  0.000
        50   8493.2734    261.2931  20.1604   0.6504  19.9156   0.5805  99.0000  99.0000     3.468     2.021 -87.18  3.50     11.21394   0  0.007
        51   7922.2041    243.4232  20.1639   0.6510  20.3858   0.7208  19.9890   0.6065     1.657     1.368 -79.17  3.98     13.97311   0  0.765
        52   7212.3296    244.3818  21.4544   1.1795  21.7097   1.3262  21.1504   1.0554     0.993     0.870  51.92  3.79     13.93822   0  0.696
        53   4484.4092    249.8731  20.5038   0.7615  20.8080   0.8755  20.1341   0.6493     1.460     1.270 -74.10  4.45      13.9497   0  0.555
        54   4472.0479    343.0182  13.8448   0.0354  13.8196   0.0350  13.8027   0.0348     5.282     4.594 -83.49  3.50     14.03717   0  0.930
        55   3850.7034    266.1255  18.4649   0.2976  18.5054   0.3031  18.4013   0.2896     2.067     1.820 -78.08  3.50     13.89793   0  0.975
        56   1291.6364    272.0942  17.5245   0.1930  17.5428   0.1946  17.4989   0.1909     2.269     1.948 -78.82  3.50       15.702   0  0.983
        57   7896.4385    276.0972  19.7208   0.5311  20.3073   0.6952  19.5108   0.4848     1.865     1.625 -27.32  5.74     13.97389   0  0.681
        58   1588.6005    311.4955  17.6082   0.2005  17.6321   0.2028  17.6078   0.2007     2.538     2.010 -61.60  3.50     15.69329   0  0.983
        59   7058.9878    306.8682  17.8019   0.2193  17.8248   0.2216  17.7330   0.2127     2.144     1.885 -80.57  3.50     13.93078   0  0.981
        60   2889.8311    305.7908  20.5048   0.7623  21.7280   1.3375  20.0050   0.6111     1.263     0.949  74.10  7.33     14.00856   0  0.282
        61   5441.2764    320.2727  18.0853   0.2498  18.1127   0.2530  18.0626   0.2476     2.124     1.850 -82.46  3.50     13.90869   0  0.978
        62   4850.6660    321.5490  19.3855   0.4552  20.5247   0.7685  19.3164   0.4428     2.097     1.708  68.66  7.08     13.92231   0  0.002
        63   3458.4795    322.7770  20.7818   0.8656  21.3493   1.1234  20.8056   0.8934     1.233     1.021 -89.04  5.33     13.97549   0  0.523
        64    683.1514    357.3835  14.1617   0.0410  14.1499   0.0408  14.1333   0.0405     2.585     2.270 -77.92  3.50     14.21716   0  0.996
        65   3060.6157    339.1221  17.0894   0.1579  17.1023   0.1589  17.0642   0.1562     2.250     1.987 -80.00  3.50     13.99266   0  0.984
        66   3410.8306    455.8433  13.9064   0.0365  13.8793   0.0360  13.8702   0.0359     6.305     4.338 -85.15  3.50      14.0864   0  0.141
        67   1251.9260    341.8856  20.6729   0.8235  21.4328   1.1675  20.8597   0.9169     1.252     1.139 -67.80  5.76     15.16183   0  0.668
        68   7384.1035    345.1094  19.0550   0.3908  19.6084   0.5039  18.9756   0.3779     2.545     2.047 -63.74  5.50     13.94419   0  0.114
        69   2046.6826    355.8087  16.3930   0.1146  16.3976   0.1148  16.3593   0.1129     2.392     2.078 -76.92  3.50     14.42136   0  0.984
        70    552.5355    363.3941  16.7905   0.1376  16.8003   0.1382  16.7589   0.1357     2.372     2.024 -77.23  3.50     14.13385   0  0.988
        71    875.7939    365.5662  18.5886   0.3153  19.1539   0.4087  18.5710   0.3133     3.253     3.138  70.70  5.25     14.42136   0  0.000
        72   3520.1589    362.8322  19.7952   0.5492  19.9409   0.5872  19.7228   0.5353     1.765     1.504 -72.58  3.77      13.9845   0  0.935
        73   2083.1753    364.5165  19.6869   0.5225  19.8270   0.5572  19.5286   0.4889     1.778     1.573 -86.11  3.72     14.36138   0  0.926
        74   1154.4155    368.5167  20.3170   0.6986  20.5682   0.7839  20.4593   0.7573     1.474     1.402 -84.12  4.18     14.85006   0  0.645
        75   4598.6948    370.1013  19.4828   0.4756  19.5866   0.4988  19.3853   0.4573     1.968     1.609 -69.96  3.69     13.95542   0  0.950
        76   2400.6963    402.6232  14.0660   0.0392  14.0536   0.0390  14.0389   0.0388     2.585     2.293 -76.54  3.50     14.17767   0  0.995
        77   4038.6062    381.0233  20.1564   0.6488  20.3892   0.7219  19.8785   0.5758     1.650     1.396 -80.18  4.21     13.91269   0  0.663
        78   5323.4922    381.0300  20.9831   0.9497  21.5778   1.2480  20.8716   0.9222     1.172     0.961 -87.70  5.11     13.91067   0  0.532
        79   5923.1279    398.6322  15.5058   0.0762  15.4978   0.0759  15.4642   0.0747     2.434     2.202 -67.01  3.50     13.90657   0  0.983
        80    349.5647    389.7336  21.0427   0.9762  21.6213   1.2733  20.4700   0.7612     1.189     0.961 -61.67  5.25     14.03503   0  0.649
        81    425.0283    394.9350  19.5101   0.4816  19.6078   0.5037  19.4627   0.4741     1.937     1.548 -81.25  3.58     14.05576   0  0.950
        82   1008.8589    394.6921  20.3087   0.6964  21.3143   1.1055  19.8854   0.5777     1.452     1.183  70.59  6.64     14.56436   0  0.356
        83   4325.6450    404.1636  17.5474   0.1950  17.5670   0.1968  17.4945   0.1905     2.243     1.963 -80.24  3.50     13.92831   0  0.982
        84   3594.7786    433.0259  14.2854   0.0434  14.2736   0.0432  14.2580   0.0429     2.531     2.254 -76.05  3.50     13.99868   0  0.997
        85   1782.0620    406.8602  18.9183   0.3667  18.9829   0.3777  18.9454   0.3727     1.999     1.747 -81.09  3.50     14.72296   0  0.966
        86   6717.8306    413.1123  20.0589   0.6202  20.2636   0.6813  19.4807   0.4781     1.680     1.423 -61.90  3.90     13.89755   0  0.752
        87    352.8589    437.1305  16.4752   0.1190  16.4788   0.1192  16.4527   0.1178     2.377     2.048 -80.10  3.50      14.0282   0  0.983
        88   4165.7334    427.0796  18.9219   0.3673  18.9916   0.3792  18.8458   0.3558     2.031     1.725 -77.83  3.50     13.92397   0  0.964
        89   6393.2368    440.4040  20.7422   0.8502  21.2794   1.0878  20.6044   0.8114     1.282     1.144 -77.03  5.53     13.89785   0  0.685
        90   1874.7311    442.3748  20.3120   0.6970  20.5993   0.7953  19.8264   0.5619     1.484     1.405 -80.11  4.34     14.50381   0  0.662
        91     56.9237    448.3111  19.8651   0.5676  22.0755   1.5697  18.7909   0.3469     1.472     0.756  84.52  8.82     13.80333   0  0.199
        92   5496.3770    470.8913  14.9393   0.0587  14.9315   0.0585  14.9116   0.0579     2.446     2.153 -78.03  3.50     13.90795   0  0.987
        93   7968.0020    457.1353  20.6200   0.8037  21.4056   1.1529  20.2726   0.6932     1.349     1.120 -53.06  5.89     13.97107   0  0.651
        94   2132.2781    480.8398  15.0766   0.0625  15.0700   0.0623  15.0479   0.0617     2.474     2.177 -77.63  3.50     14.25226   0  0.989
        95   8399.4912    458.5805  19.7522   0.5385  19.9058   0.5778  19.6748   0.5234     1.770     1.521 -86.43  3.97     13.93819   0  0.891
        96   7089.0786    462.8473  21.1437   1.0227  21.9271   1.4658  21.4291   1.2099     1.153     0.739 -80.67  5.65     13.93247   0  0.481
        97   2811.6570    464.9129  20.3403   0.7062  20.6296   0.8064  20.3763   0.7281     1.558     1.329 -72.30  4.53     14.04437   0  0.639
        98   5659.3130    489.1462  20.6317   0.8078  21.0227   0.9665  20.3646   0.7240     1.339     1.269 -68.21  4.88     13.90369   0  0.557
        99   2483.0261    499.2008  16.9667   0.1492  16.9754   0.1498  16.9440   0.1478     2.299     2.020 -80.03  3.50      14.1356   0  0.983
       100   3410.2944    511.2057  17.7464   0.2139  18.2374   0.2680  17.6618   0.2058     4.388     4.011   1.02  5.34     14.07204   0  0.000
       101   2122.6873    511.4538  18.7389   0.3376  18.7968   0.3467  18.5199   0.3060     2.026     1.773 -77.69  3.50     14.25391   0  0.971
       102   5882.6826    549.4852  14.4295   0.0464  14.4182   0.0462  14.4026   0.0458     2.470     2.197 -78.80  3.50     13.90902   0  0.998
       103    965.4180    534.0524  19.4816   0.4753  19.5803   0.4974  19.4055   0.4616     1.925     1.662 -82.97  3.50     14.31448   0  0.951
       104   7923.9121    538.6663  19.5201   0.4844  20.9546   0.9368  19.2356   0.4265     1.965     1.439  -5.90  7.61     13.96696   0  0.001
       105    352.7899    545.5635  18.6738   0.3276  18.7261   0.3356  18.5930   0.3165     2.050     1.774 -85.46  3.50     13.98263   0  0.973
       106   4326.0303    549.0187  20.1906   0.6590  20.4415   0.7395  19.8383   0.5651     1.644     1.391 -71.63  3.89     13.93428   0  0.767
       107   2481.0015    573.5294  18.6629   0.3261  18.9436   0.3710  18.5393   0.3087     2.685     2.183 -71.17  4.82      14.1342   0  0.288
       108    490.4150    589.5687  19.7527   0.5389  20.2027   0.6625  19.5711   0.4987     1.842     1.773 -75.86  5.12     14.02419   0  0.416
       109   7468.4028    592.0665  20.8926   0.9110  21.4955   1.2016  20.9974   0.9799     1.234     0.967 -74.83  5.37     13.93692   0  0.514
       110   7316.8247    625.5604  17.0609   0.1559  17.0722   0.1567  17.0372   0.1543     2.267     1.957 -78.56  3.50     13.95111   0  0.983
       111   5236.7192    616.8746  18.7869   0.3451  18.8404   0.3537  18.6984   0.3323     2.030     1.779 -76.03  3.50     13.90906   0  0.970
       112   6213.5850    623.6451  20.0400   0.6153  21.5410   1.2272  19.8203   0.5603     1.524     1.014  83.16  7.77     13.91005   0  0.003
       113   5615.8481    655.7766  15.0085   0.0606  15.0004   0.0603  14.9808   0.0598     2.432     2.154 -77.96  3.50     13.91699   0  0.993
       114   2553.2012    635.3120  20.4435   0.7406  20.8198   0.8802  20.5175   0.7785     1.462     1.273 -71.42  4.64     14.13084   0  0.660
       115   6477.5811    646.9056  20.8396   0.8891  21.4687   1.1869  20.3002   0.7023     1.225     0.973 -75.71  5.69       13.909   0  0.490
       116   1286.4847    650.1207  19.5266   0.4853  19.6282   0.5085  19.5181   0.4865     1.915     1.644 -75.84  3.50      14.4423   0  0.946
       117   6602.3657    651.1425  20.9802   0.9484  21.4689   1.1870  20.8332   0.9053     1.233     0.966 -73.82  4.97     13.90897   0  0.526
       118   6386.3765    651.5591  20.8210   0.8816  21.6455   1.2876  20.4810   0.7651     1.203     0.970 -65.57  6.02     13.90588   0  0.684
       119   6186.9487    655.5570  19.7697   0.5432  20.4838   0.7541  19.3604   0.4520     1.739     1.620  79.17  6.08     13.90489   0  0.528
       120   1939.7899    657.7253  20.3582   0.7121  20.6903   0.8293  20.4436   0.7517     1.490     1.317 -79.62  4.52     14.27264   0  0.607
       121   3673.7739    659.2991  18.9647   0.3746  19.0086   0.3822  18.9121   0.3670     1.970     1.729 -80.27  3.50     13.96864   0  0.966
       122   2628.6145    737.9282  14.0433   0.0388  14.0254   0.0385  14.0040   0.0381     3.789     3.167 -81.09  3.50     14.13749   0  1.000
       123   5139.4507    673.2571  19.6949   0.5249  21.4118   1.1563  19.2318   0.4257     1.570     1.184 -41.27  8.09     13.91463   0  0.029
       124   2674.9382    686.7596  16.3875   0.1143  16.3903   0.1144  16.3497   0.1124     2.330     2.059 -79.38  3.50     14.11168   0  0.985
       125   5444.0356    691.4252  18.9126   0.3657  18.9633   0.3743  18.8444   0.3556     1.984     1.731 -77.68  3.50     13.90717   0  0.961
       126   4131.2109    703.7734  18.0190   0.2423  18.0466   0.2454  17.9726   0.2376     2.146     1.853 -77.58  3.50     13.95029   0  0.980
       127   6762.4053    710.4031  20.5037   0.7618  21.4933   1.2005  20.4647   0.7592     1.504     1.013  82.91  6.26     13.90712   0  0.070
       128   4902.2173    784.2329  14.2158   0.0420  14.2024   0.0418  14.1804   0.0414     3.201     2.884 -79.03  3.50     13.93826   0  0.999
       129   7251.7075    749.5635  19.8233   0.5564  19.9715   0.5955  19.7642   0.5458     1.764     1.486 -72.74  3.76      13.9479   0  0.908
       130     51.7961    758.3964  18.9645   0.3748  19.6057   0.5033  18.6218   0.3208     2.308     2.199 -35.72  5.99     13.81307   0  0.114
       131   4012.8699    759.3681  20.8697   0.9014  21.5694   1.2432  20.8171   0.8984     1.124     1.030 -65.07  5.41     13.95981   0  0.491
       132   2184.1113    775.2305  18.9210   0.3673  19.2440   0.4260  18.9146   0.3674     2.513     2.015 -87.60  4.78     14.17189   0  0.297
       133   5780.6558    780.4233  19.3112   0.4394  19.4167   0.4613  19.3018   0.4398     1.813     1.676 -63.56  3.58     13.89852   3  0.951
       134   2562.8728    780.5576  21.0179   0.9653  21.7662   1.3611  20.4745   0.7628     1.056     0.895 -76.13  5.90     14.12236   0  0.496
       135   5771.9771    781.7028  19.3849   0.4546  19.5011   0.4795  19.3273   0.4451     1.837     1.631 -75.11  3.79      13.8985   3  0.950
       136   2099.0039    790.4874  20.2289   0.6713  21.1908   1.0443  19.9553   0.5969     1.481     1.239 -85.68  6.61     14.17957   0  0.074
       137   5295.1855    801.0663  19.9583   0.5921  20.1074   0.6340  19.8574   0.5701     1.657     1.524 -71.27  3.62      13.9078   0  0.878
       138   2835.2893    810.5747  19.2174   0.4211  19.5889   0.4994  19.0805   0.3968     3.053     1.847 -38.86  4.74      14.0565   0  0.001
       139   7943.8457    849.7865  17.0135   0.1526  17.4791   0.1890  17.0652   0.1563     8.191     5.789 -14.15  4.95     14.00517   0  0.000
       140    760.1233    821.6846  20.8250   0.8829  21.1061   1.0043  20.8385   0.9076     1.416     1.148 -71.43  4.20     14.06478   0  0.646
       141   2197.1172    857.7015  14.2817   0.0433  14.2701   0.0431  14.2542   0.0428     2.511     2.249 -78.40  3.50     14.14235   0  0.998
       142   2831.5933    850.2595  16.6656   0.1299  16.6723   0.1303  16.6304   0.1279     2.286     2.039 -79.41  3.50       14.057   0  0.990
       143   4813.0747    859.4603  20.7690   0.8604  21.1369   1.0187  20.5425   0.7878     1.434     1.101 -82.39  4.35      13.9435   0  0.577
       144   7617.7441    886.6843  17.2521   0.1702  17.2645   0.1712  17.2114   0.1672     2.260     1.947 -76.67  3.50     13.97198   0  0.983
       145   6772.9775    915.4384  14.4820   0.0475  14.4711   0.0473  14.4547   0.0469     2.472     2.182 -77.62  3.50     13.92931   0  0.987
       146   4450.0015    889.5536  21.0991   1.0019  21.8492   1.4142  21.5115   1.2603     1.068     0.798 -88.11  5.83     13.94955   0  0.488
       147   6963.0654    915.7691  16.8018   0.1383  16.8091   0.1388  16.7640   0.1360     2.276     1.978 -76.94  3.50     13.91785   0  0.984
       148   7038.0703    908.3796  20.5113   0.7641  20.8648   0.8987  20.1685   0.6599     1.479     1.218 -79.35  4.50     13.92028   0  0.682
       149   5098.6982    911.7549  19.9282   0.5839  20.0575   0.6196  19.7403   0.5397     1.688     1.480 -76.29  3.53     13.90456   0  0.883
       150   6367.2144    918.6836  20.3937   0.7241  21.0749   0.9900  20.1689   0.6601     1.626     1.166  73.18  5.73     13.91572   0  0.647
       151   1408.1396    920.0541  20.7799   0.8649  21.3678   1.1330  20.7619   0.8749     1.250     1.127 -67.02  5.11     14.20678   0  0.635
       152    301.5879    923.8156  20.3046   0.6947  20.5897   0.7917  20.3019   0.7029     1.565     1.324 -72.76  4.51     13.96398   0  0.585
       153   3150.0115    957.5328  18.3455   0.2820  19.1100   0.4006  18.3376   0.2812     4.598     2.869  30.67  5.81      14.0394   0  0.000
       154    192.7090    957.2706  18.3800   0.2863  18.7139   0.3338  18.3680   0.2852     3.561     3.175  18.15  4.64     13.95702   0  0.000
       155   1909.1243    952.5209  19.2628   0.4300  19.7314   0.5332  19.0683   0.3946     2.135     1.934  48.91  5.38     14.13884   0  0.421
       156   5664.9800    956.5197  20.2969   0.6924  20.7438   0.8500  20.0189   0.6151     1.518     1.218 -70.66  5.51     13.89974   0  0.612
       157   2884.0679    981.3838  15.8578   0.0896  15.8558   0.0895  15.8275   0.0883     2.357     2.100 -79.09  3.50     14.04632   0  0.984
       158   7479.2778    976.0159  17.4136   0.1833  17.4287   0.1846  17.3891   0.1815     2.193     1.905 -80.06  3.50     13.97045   0  0.982
       159    546.3625    974.2890  19.4443   0.4672  19.5516   0.4908  19.2360   0.4266     1.874     1.657 -88.40  3.65     13.98699   0  0.956
       160   4577.2231    982.9691  17.7451   0.2136  17.7679   0.2158  17.7190   0.2113     2.138     1.903 -79.15  3.50     13.94977   0  0.982
       161   5362.4370    992.0697  20.5829   0.7895  20.7892   0.8679  20.9663   0.9653     1.443     1.273 -76.62  3.60     13.93077   0  0.587
       162   6649.2354    992.8461  19.7259   0.5323  20.2907   0.6899  19.6480   0.5169     1.935     1.559  84.49  5.49     13.94374   0  0.712
       163   6180.6260    995.3036  19.7478   0.5379  21.1260   1.0137  19.4844   0.4789     1.555     1.392  47.31  7.69     13.92009   0  0.024
       164   4406.5493   1004.8671  19.6595   0.5163  21.4561   1.1801  18.9039   0.3656     1.359     1.185 -34.59  8.32     13.96033   0  0.534
       165   6834.6040   1017.1046  19.7497   0.5378  19.9019   0.5768  19.8053   0.5564     1.749     1.472 -73.35  3.94     13.94691   0  0.913
       166   2157.0593   1020.3241  20.5711   0.7854  20.8479   0.8917  20.4716   0.7617     1.460     1.225 -80.83  4.26     14.09093   0  0.621
       167   8320.4844   1027.8165  20.4508   0.7433  20.9787   0.9471  20.4246   0.7449     1.386     1.371  52.28  5.43     13.90552   0  0.675
       168   2755.2051   1032.4397  19.1972   0.4169  19.2683   0.4308  19.1254   0.4052     1.914     1.666 -80.88  3.50     14.05899   0  0.961
       169   7800.3057   1040.7872  17.4674   0.1880  17.4823   0.1892  17.4091   0.1831     2.166     1.890 -79.81  3.50     14.01573   0  0.981
       170   2815.8662   1052.8485  20.5100   0.7641  21.7025   1.3220  20.3303   0.7124     1.276     1.091 -44.49  6.88     14.05357   0  0.558
       171   1541.4005   1054.6119  19.0187   0.3840  19.0816   0.3953  19.0516   0.3915     1.988     1.747 -82.16  3.50     14.14438   0  0.965
       172   6861.1392   1057.5939  18.6630   0.3260  18.6951   0.3308  18.6050   0.3183     1.992     1.763 -81.70  3.50      13.9416   0  0.971
       173   2539.2026   1071.4786  20.1988   0.6615  20.4311   0.7360  20.1732   0.6614     1.598     1.377 -81.87  3.98     14.06111   0  0.680
       174   3120.7686   1073.4736  21.0923   0.9988  21.7029   1.3220  20.6862   0.8437     1.019     0.971 -76.06  5.56     14.04021   0  0.489
       175   7758.5112   1096.9839  18.4537   0.2964  19.8906   0.5739  18.3346   0.2808     3.676     2.132  35.61  7.42     14.00637   0  0.001
       176    744.8481   1094.0573  20.6460   0.8132  21.1761   1.0372  20.7058   0.8517     1.291     1.175 -57.63  5.26      14.0023   0  0.531
       177    512.3750   1099.6414  20.4376   0.7390  21.4748   1.1902  20.2845   0.6971     1.193     1.086 -47.66  6.97      13.9786   0  0.559
       178   4657.2202   1103.7076  21.0677   0.9875  21.5716   1.2445  20.9083   0.9386     1.132     0.939 -81.50  5.16     13.94796   0  0.500
       179   5329.9658   1108.1494  19.9998   0.6035  20.1523   0.6473  19.9786   0.6035     1.656     1.489 -66.84  3.50     13.93967   0  0.882
       180   5398.2573   1113.6930  19.7214   0.5311  20.0296   0.6117  19.5776   0.5002     1.936     1.730 -62.45  4.51     13.94417   0  0.591
       181   2547.9963   1124.7919  19.7609   0.5409  20.2786   0.6861  19.6210   0.5104     1.877     1.632 -68.87  5.39     14.06226   0  0.361
       182   8482.7666   1128.2444  19.2251   0.4228  21.1307   1.0159  99.0000  99.0000     2.697     0.989  54.14  8.36      13.4347   0  0.001
       183   5819.3652   1129.6232  19.2589   0.4290  19.3450   0.4463  19.1982   0.4191     1.922     1.631 -76.53  3.72     13.91855   0  0.955
       184     97.9853   1130.5015  20.2023   0.6632  21.1968   1.0472  19.8865   0.5780     1.481     1.243 -86.22  6.71     13.93367   0  0.509
       185   1927.2225   1133.8851  18.3704   0.2851  18.7609   0.3411  18.3083   0.2774     4.391     2.451   9.43  4.98     14.08057   0  0.000
       186   8054.0229   1140.4597  21.0996   1.0022  21.8759   1.4317  20.7742   0.8800     1.072     0.796 -88.47  6.06      13.9841   0  0.496
       187   8480.9785    846.9005  99.0000  99.0000  14.6424   0.0512  99.0000  99.0000    54.690    13.820 -89.94  0.00     13.89956  51  0.574
       188   8492.6826   2081.3635  13.8983   0.0364  12.9026   0.0230  14.6984   0.0525   496.987    19.091 -88.94  3.50   0.04611411  50  0.000
       189   8506.8086   1464.8718  14.4664   0.0472  14.4753   0.0474  14.9461   0.0589    32.580     5.559  89.73  3.50     8.267564  51  0.854
       190   3643.5874   1152.1917  20.5570   0.7806  21.2797   1.0880  20.1297   0.6480     1.577     0.987 -81.44  5.76     14.00184   0  0.646
       191   7684.3491   1154.5858  20.8772   0.9046  21.5373   1.2249  20.4237   0.7446     1.190     0.958 -66.60  5.65     13.99971   0  0.467
       192   6422.6724   1160.4980  20.2380   0.6740  22.3489   1.7804  19.6341   0.5136     1.102     0.844 -37.29  8.67     13.93691   0  0.363
       193   4463.6572   1168.4838  20.0674   0.6227  20.2687   0.6829  19.8900   0.5789     1.664     1.365 -74.91  3.96     13.96668   0  0.742
       194   5608.7598   1172.2451  20.2164   0.6671  20.6911   0.8296  19.6432   0.5158     1.507     1.413  89.11  5.06     13.93444   0  0.748
       195    130.6634   1179.1132  20.7464   0.8514  21.2233   1.0600  20.3776   0.7285     1.275     1.091 -73.31  4.38     13.94235   0  0.531
       196   1751.0765   1180.3291  20.4638   0.7476  20.8404   0.8887  20.7272   0.8605     1.465     1.229 -76.49  4.80     14.05541   0  0.716
       197   7694.0513   1183.4462  18.8284   0.3518  18.8821   0.3606  18.8078   0.3496     1.973     1.734 -77.70  3.50     14.00906   0  0.967
       198   6391.9600   1210.8688  16.3246   0.1110  16.3256   0.1111  16.2900   0.1093     2.266     2.016 -81.31  3.50     13.93621   0  0.983
       199   6511.2446   1201.4512  20.9656   0.9423  21.7315   1.3396  20.8854   0.9283     1.019     0.980  78.13  6.02     13.93654   0  0.495
       200   5449.9648   1200.9290  18.9369   0.3698  18.9915   0.3792  18.7340   0.3379     1.905     1.749 -74.46  3.50     13.94767   0  0.965
       201   1318.6967   1203.8799  18.7864   0.3451  18.8453   0.3545  18.6925   0.3314     2.029     1.773 -82.56  3.50     14.05351   0  0.967
       202   3742.3489   1205.0292  19.0660   0.3925  19.1344   0.4050  19.0285   0.3873     1.963     1.674 -73.23  3.50     13.99774   0  0.965
       203   1982.2988   1211.5994  20.2315   0.6721  21.1772   1.0379  20.3512   0.7195     1.590     1.288  47.58  6.27     14.05619   0  0.002
       204   2493.8201   1301.9965  13.9638   0.0374  13.9381   0.0370  13.9187   0.0367     5.321     4.591 -83.96  3.50     14.12298   0  0.125
       205   5301.0547   1227.7151  16.9277   0.1466  16.9353   0.1471  16.8949   0.1445     2.213     1.971 -78.86  3.50     13.94136   0  0.983
       206   8001.4224   1227.3762  18.4026   0.2893  18.8451   0.3545  18.3626   0.2845     3.970     2.465  39.82  5.02     14.01445   0  0.020
       207   6261.8677   1218.3884  20.5358   0.7727  20.8056   0.8745  20.3954   0.7347     1.454     1.216  83.05  4.11     13.92869   0  0.606
       208   4788.9966   1228.5182  21.0500   0.9795  21.8677   1.4262  20.7385   0.8651     1.071     0.797 -88.61  5.91     13.93471   0  0.475
       209   1694.1823   1241.8611  18.2176   0.2659  19.1029   0.3993  18.1981   0.2636     3.734     3.568 -77.88  6.27      14.0438   0  0.000
       210   2054.3665   1242.8835  16.9082   0.1453  16.9187   0.1460  16.8645   0.1425     2.300     2.004 -75.37  3.50     14.04958   0  0.985
       211   1620.7214   1237.6914  19.3812   0.4543  20.1599   0.6496  19.1646   0.4126     2.103     1.860 -15.58  6.27     14.06872   0  0.046
       212   1803.2958   1245.0015  20.5596   0.7818  22.0748   1.5692  20.5074   0.7748     1.241     0.855 -89.48  7.66     14.03687   0  0.473
       213   6929.3447   1265.1295  16.4169   0.1159  16.4191   0.1160  16.3875   0.1143     2.270     1.989 -79.43  3.50     13.97105   0  0.985
       214   1742.4282   1253.5977  20.2683   0.6831  20.5641   0.7825  20.3111   0.7059     1.520     1.395 -80.46  4.32     14.03813   0  0.585
       215   7375.5669   1295.6990  14.1806   0.0414  14.1680   0.0411  14.1506   0.0408     2.830     2.494 -76.13  3.50     14.01522   0  1.000
       216   8069.2373   1267.8440  19.4785   0.4752  20.4478   0.7417  19.4713   0.4760     2.193     1.754 -65.43  6.46     13.98434   0  0.002
       217   8186.6309   1269.5839  20.0735   0.6245  20.2912   0.6900  19.8921   0.5795     1.626     1.370 -77.25  4.38     13.93093   0  0.752
       218   4149.8052   1280.7589  19.6255   0.5079  19.7479   0.5373  19.5789   0.5005     1.762     1.556 -84.86  3.67     13.96578   0  0.934
       219   3164.1853   1281.2180  20.6634   0.8195  20.9393   0.9300  20.3560   0.7211     1.394     1.203  87.52  4.15     14.02871   0  0.683
       220   1659.9146   1303.4355  17.4809   0.1891  17.4988   0.1907  17.4465   0.1863     2.199     1.939 -79.70  3.50      14.0366   0  0.982
       221   3020.0039   1308.5015  20.3545   0.7112  21.3226   1.1097  20.1357   0.6498     1.405     1.237 -58.18  6.41     14.03015   0  0.337
       222   8022.4800   1310.0002  20.4539   0.7446  21.6790   1.3077  20.3782   0.7287     1.351     0.967 -65.61  7.16      14.0151   0  0.290
       223   6265.2329   1313.4878  19.4827   0.4758  19.9348   0.5856  19.5080   0.4842     2.439     1.846 -82.50  4.79     13.94264   0  0.003
       224   4775.8604   1313.3452  20.2621   0.6815  20.9289   0.9257  20.0769   0.6321     1.598     1.374  21.01  5.43     13.93401   0  0.672
       225    334.0367   1315.9387  19.7608   0.5406  19.8700   0.5684  19.6854   0.5260     1.737     1.569 -82.88  3.62     13.93113   0  0.932
       226   4885.6738   1322.4122  19.7454   0.5371  20.4341   0.7371  19.9077   0.5838     2.036     1.804 -78.21  5.27     13.93338   0  0.000
       227   3028.7642   1327.9653  20.2725   0.6844  20.4719   0.7499  19.7607   0.5449     1.567     1.354 -84.90  4.04     14.03034   0  0.762
       228    189.7578   1333.4677  19.2246   0.4228  20.6343   0.8083  19.2146   0.4223     2.996     1.408   0.14  7.54     13.92836   0  0.001
       229   8297.0605   1353.8613  19.7389   0.5355  20.2951   0.6913  19.6486   0.5171     1.764     1.651  83.46  5.77     13.92215   0  0.372
       230   5317.6646   1362.4100  17.2148   0.1673  17.2275   0.1683  17.1856   0.1652     2.185     1.942 -79.77  3.50      13.9459   0  0.983
       231   7696.1846   1385.4924  14.9947   0.0602  14.9862   0.0599  14.9632   0.0593     2.432     2.124 -77.52  3.50     14.03082   0  0.993
       232   7023.6074   1365.5039  17.5067   0.1914  17.5224   0.1928  17.4701   0.1884     2.167     1.904 -78.38  3.50     13.96297   0  0.982
       233   5512.1748   1365.5391  19.8454   0.5625  20.4608   0.7462  19.7709   0.5475     1.922     1.750  72.97  5.25     13.95318   0  0.001
       234   1983.4849   1374.9706  18.6487   0.3240  19.0966   0.3981  18.4513   0.2964     2.764     2.360   6.11  5.33     14.01609   0  0.131
       235   7943.2651   1378.6885  18.3096   0.2770  18.3398   0.2809  18.2375   0.2685     2.151     1.812 -77.16  3.50      14.0208   0  0.978
       236   5161.8145   1383.7345  20.7293   0.8447  21.1183   1.0100  20.6059   0.8120     1.311     1.152 -88.71  4.25     13.94842   0  0.596
       237   2902.1167   1387.6453  19.8535   0.5642  19.9890   0.6004  19.7301   0.5371     1.713     1.527 -68.97  3.59     14.02966   0  0.908
       238   3387.4080   1405.9341  19.8255   0.5574  20.4565   0.7447  19.7657   0.5462     2.067     1.564  38.53  5.71     14.04648   0  0.014
       239   3727.2949   1447.0923  14.2186   0.0421  14.2058   0.0418  14.1911   0.0416     2.493     2.231 -75.86  3.50     14.01932   0  0.996
       240   5837.9971   1439.4875  20.6599   0.8183  20.9496   0.9345  20.5593   0.7942     1.410     1.212  89.34  4.67     13.93938   0  0.623
       241   7959.1147   1464.7488  18.9797   0.3772  19.0441   0.3885  18.9675   0.3765     1.985     1.710 -76.88  3.60     14.01571   0  0.966
       242   8158.0869   1482.1465  16.3308   0.1114  16.3333   0.1115  16.2974   0.1097     2.318     1.989 -77.16  3.50     13.93637   0  0.983
       243   5972.1904   1470.2841  18.7857   0.3450  18.8354   0.3529  18.7869   0.3463     1.950     1.724 -84.04  3.50     13.93653   0  0.968
       244   6514.4990   1478.5298  21.1065   1.0055  21.9879   1.5075  20.4274   0.7459     0.938     0.924  67.12  6.10     13.92437   0  0.513
       245   1326.5909   1485.1957  20.1945   0.6602  20.3799   0.7188  20.1138   0.6432     1.627     1.376 -73.98  4.00     13.98286   0  0.697
       246   2659.1553   1487.1143  19.0183   0.3840  19.0798   0.3950  18.9977   0.3818     1.917     1.727 -80.61  3.50     14.02174   0  0.968
       247   6503.0928   1487.9988  20.2679   0.6830  20.5409   0.7741  19.7773   0.5491     1.600     1.277 -88.19  4.34     13.92323   0  0.752
       248   8073.3101   1490.9440  20.6302   0.8071  20.8962   0.9118  20.8561   0.9153     1.453     1.240 -82.63  4.16     13.96202   0  0.596
       249   1831.6810   1512.1730  16.5074   0.1208  16.5107   0.1210  16.4731   0.1189     2.342     2.054 -75.24  3.50     13.98193   0  0.984
       250   5391.3135   1508.6256  19.4108   0.4603  19.8210   0.5557  19.1402   0.4080     2.179     1.633  84.52  5.23      13.9552   0  0.921
       251   6539.9644   1512.7784  20.6583   0.8176  20.9866   0.9506  20.4838   0.7662     1.318     1.218 -83.72  4.58     13.92688   0  0.529
       252   7679.1152   1547.1185  19.4451   0.4678  20.4153   0.7307  19.2277   0.4249     1.889     1.562 -56.67  6.79     14.03005   0  0.246
       253   7407.4595   1550.4012  18.9692   0.3754  19.0271   0.3855  19.0015   0.3825     1.962     1.656 -80.97  3.50     14.00381   0  0.965
       254    106.9883   1556.5237  20.5107   0.7642  21.6224   1.2740  20.5702   0.7983     1.342     0.976 -22.99  6.70     13.92581   0  0.541
       255   6699.1841   1558.6849  20.5272   0.7700  21.1297   1.0153  20.0836   0.6341     1.432     1.178 -72.55  5.51     13.95187   0  0.628
       256   2495.7300   1561.3562  20.1336   0.6424  22.0494   1.5509  19.9568   0.5974     1.176     0.982 -85.11  8.40      14.0008   0  0.259
       257    968.8697   1570.5474  18.3547   0.2828  18.3973   0.2884  18.2888   0.2749     2.153     1.841 -74.03  3.50     13.95224   0  0.978
       258   4101.3477   1571.7588  19.4283   0.4638  19.5285   0.4856  19.2443   0.4282     1.838     1.615 -72.42  3.50     13.96453   0  0.951
       259   2879.0569   1579.7795  20.4459   0.7418  21.5788   1.2487  20.3285   0.7117     1.395     0.999 -48.89  6.76     14.02643   0  0.644
       260   3364.4539   1715.6930  14.2855   0.0434  14.3503   0.0447  14.4076   0.0459    11.099    10.090 -76.34  3.96     14.37862   0  0.029
       261   3985.3013   1584.0740  19.7051   0.5274  20.8238   0.8819  19.6401   0.5150     1.722     1.418  81.88  7.19     13.98393   0  0.125
       262   3030.4148   1596.1876  16.8258   0.1399  16.8336   0.1404  16.7900   0.1376     2.263     2.005 -72.17  3.50     14.04375   0  0.984
       263   4994.0762   1627.1672  14.7444   0.0536  14.7338   0.0534  14.7161   0.0529     2.408     2.173 -77.65  3.50     13.96358   0  0.985
       264    767.3947   1618.2366  19.8932   0.5746  20.0358   0.6134  19.9174   0.5864     1.736     1.486 -78.47  3.79     13.92288   0  0.909
       265   4427.3818   1622.5587  18.0658   0.2476  18.0896   0.2503  18.0380   0.2448     2.093     1.834 -82.79  3.50      13.9798   0  0.978
       266   1007.4867   1629.0258  20.3681   0.7153  20.5739   0.7860  20.4180   0.7426     1.642     1.313 -65.60  4.13     13.94563   0  0.578
       267   4577.8477   1633.5876  19.4847   0.4760  19.6053   0.5031  19.4141   0.4635     1.843     1.590 -79.57  3.64     13.97091   0  0.943
       268   7138.5981   1645.0833  19.2922   0.4356  19.3690   0.4512  19.1618   0.4121     1.868     1.631 -83.22  3.58     13.97604   0  0.954
       269   6307.0396   1644.7919  20.7293   0.8447  21.0882   0.9961  20.5465   0.7893     1.335     1.175 -68.57  4.04     13.92656   0  0.594
       270   8413.3535   1668.0374  17.6380   0.2033  17.6538   0.2048  17.8432   0.2238     2.161     1.863 -76.38  3.50     13.89991   0  0.982
       271   8237.7812   1666.7498  19.8015   0.5508  19.9141   0.5800  19.5870   0.5024     1.751     1.525 -74.76  3.50     13.91534   0  0.913
       272   7628.3223   1674.9906  19.7857   0.5474  20.9656   0.9415  19.5295   0.4891     1.855     1.264 -55.90  7.29     14.01114   0  0.023
       273   1146.1324   1688.2626  20.5359   0.7729  20.9326   0.9272  20.4420   0.7511     1.417     1.241 -84.37  4.88      13.9337   0  0.608
       274   1964.8239   1694.1057  19.0434   0.3884  19.1054   0.3996  19.1142   0.4031     1.926     1.722 -77.07  3.50     13.95909   0  0.961
       275   8110.3306   1719.9017  14.9899   0.0601  14.9810   0.0598  14.9609   0.0593     2.422     2.115 -76.56  3.50     13.97247   0  0.992
       276    771.2930   1710.0802  17.8040   0.2195  17.8228   0.2214  17.7815   0.2175     2.135     1.899 -81.64  3.50     13.91347   0  0.981
       277   4807.5981   1708.6044  21.1004   1.0024  21.7729   1.3653  21.3069   1.1393     1.029     0.894  49.94  5.47     13.96194   0  0.511
       278   2013.5895   1717.8239  19.3666   0.4508  19.4459   0.4675  19.3302   0.4457     1.901     1.644 -72.93  3.50     13.95415   0  0.952
       279   1938.0647   1729.6871  16.5323   0.1222  16.5376   0.1225  16.4953   0.1202     2.300     2.023 -77.08  3.50      13.9563   0  0.984
       280   1809.3157   1752.8912  17.5458   0.1950  18.0938   0.2508  17.4584   0.1873     3.783     3.737 -35.86  5.83     13.94161   0  0.022
       281   8443.3408   1763.1359  15.9094   0.0917  15.9097   0.0917  16.1056   0.1004     2.245     1.961 -76.96  3.50     13.89546   0  0.984
       282   2044.5387   1756.1727  19.1914   0.4161  19.6738   0.5193  19.0693   0.3948     2.219     1.918  61.97  5.41      13.9505   0  0.301
       283   7309.7261   1762.5316  21.1290   1.0158  21.7480   1.3498  99.0000  99.0000     1.016     0.975  87.48  5.42     14.01012   0  0.461
       284    900.3775   1767.2932  20.9452   0.9332  21.5543   1.2346  20.5860   0.8043     1.139     1.002 -75.52  4.93     13.91539   0  0.501
       285    801.4475   1782.5681  16.5220   0.1216  16.5264   0.1218  16.4864   0.1197     2.326     2.057 -78.83  3.50     13.90703   0  0.986
       286   7798.5083   1774.4984  20.1331   0.6425  21.3614   1.1298  20.0560   0.6259     1.656     1.165 -55.41  7.20      13.9977   0  0.003
       287   3877.5208   1792.3846  20.9266   0.9252  21.4744   1.1900  20.3828   0.7303     1.170     1.026 -74.53  4.74     14.00529   0  0.620
       288    488.5406   1794.2456  20.4652   0.7479  20.7280   0.8438  20.2796   0.6955     1.476     1.329  85.83  4.00     13.89961   0  0.541
       289   7258.3213   1823.9395  14.6361   0.0510  14.6259   0.0508  14.6081   0.0504     2.434     2.147 -77.64  3.50     14.01163   0  0.995
       290   1446.2742   1806.9697  20.4434   0.7405  20.7602   0.8564  19.9568   0.5974     1.497     1.276 -62.55  4.46     13.94543   0  0.620
       291   3096.0242   1814.1625  20.4950   0.7583  20.7544   0.8541  20.6404   0.8255     1.512     1.245 -88.13  4.08     14.05821   0  0.551
       292   7218.8164   1841.6073  16.2998   0.1098  16.3020   0.1099  16.2703   0.1083     2.293     2.011 -76.04  3.50     14.00661   0  0.983
       293   6031.0190   1829.8861  19.9353   0.5859  20.0848   0.6274  19.8222   0.5608     1.646     1.468 -68.59  3.68     13.95579   0  0.869
       294    530.5115   1838.4927  20.2790   0.6865  20.5255   0.7687  19.9753   0.6026     1.591     1.374 -76.84  4.44     13.90227   0  0.737
       295   5852.5537   1846.7888  19.6379   0.5108  19.7430   0.5360  19.7487   0.5418     1.814     1.548 -73.56  3.50     13.95137   0  0.932
       296   4207.3643   2085.5620  14.5144   0.0483  14.2280   0.0423  14.9247   0.0583    26.535    20.549  32.37  3.50 2.321417e-06   3  0.001
       297   2021.5181   1855.7738  20.7242   0.8430  21.2903   1.0932  20.4194   0.7431     1.234     1.024 -87.49  5.55     13.94784   0  0.509
       298   4323.7236   2076.3354  14.7724   0.0544  14.4092   0.0460  14.9379   0.0586    19.998    18.706 -51.94  3.50     1.696824   0  0.000
       299   2968.7048   1865.6449  18.5094   0.3037  18.5506   0.3095  18.4392   0.2948     1.997     1.784 -79.14  3.50     14.03354   0  0.976
       300   8298.0547   1872.8872  20.1734   0.6539  20.4095   0.7287  20.1011   0.6393     1.625     1.386 -70.64  4.39     13.92544   0  0.652
       301   5076.0083   1880.6333  19.8712   0.5692  21.7678   1.3623  19.6332   0.5133     1.336     1.074  33.59  8.22     13.95111   0  0.097
       302   4191.0850   1898.1534  16.6288   0.1277  16.6338   0.1280  16.5784   0.1249     2.254     2.012 -76.44  3.50     13.95842   0  0.983
       303   2725.7136   1902.9984  17.8869   0.2280  17.9128   0.2307  17.8249   0.2219     2.140     1.887 -74.03  3.50     14.00469   0  0.980
       304   7039.5898   1901.0725  19.8795   0.5715  21.0445   0.9763  19.6371   0.5143     1.770     1.283 -65.44  7.00     13.99774   2  0.449
       305   8408.7285   1905.9807  19.2361   0.4248  19.9939   0.6018  19.3998   0.4604     2.101     1.763 -74.63  6.36     13.91178   0  0.294
       306   7035.2427   1907.2174  20.1241   0.6397  21.2788   1.0875  19.7157   0.5335     1.539     1.174 -64.50  7.03     13.99764   3  0.614
       307    333.0323   1915.5002  20.5483   0.7772  20.8729   0.9020  20.4172   0.7423     1.434     1.207 -88.52  4.41     13.95127   0  0.706
       308   8265.1045   1925.3424  20.5519   0.7785  20.8513   0.8931  20.1959   0.6685     1.468     1.212 -76.34  4.36     13.92335   0  0.693
       309    320.8730   1969.5886  13.9458   0.0371  13.9316   0.0369  13.9139   0.0366     3.155     2.844 -80.85  3.50     13.95802   0  1.000
       310   1959.9551   1927.5668  20.0756   0.6251  20.2542   0.6784  19.8799   0.5762     1.696     1.439 -64.32  4.07     13.93247   0  0.749
       311   3927.6428   1927.5884  20.2968   0.6923  20.7779   0.8634  20.2859   0.6976     1.493     1.396 -64.16  4.91     14.00675   0  0.674
       312   7653.2515   1944.0905  16.8054   0.1386  16.8104   0.1389  16.7613   0.1358     2.241     1.967 -78.23  3.50     13.99267   0  0.983
       313   7134.6440   1943.0131  19.0483   0.3893  19.1228   0.4029  18.9271   0.3695     1.909     1.660 -77.71  3.50     13.99319   0  0.963
       314   1640.5052   1946.0986  19.3254   0.4428  20.0074   0.6056  19.2410   0.4276     2.841     2.044 -54.64  5.60     13.93626   0  0.000
       315   6011.9980   1948.0889  19.5913   0.5000  19.7140   0.5289  19.6273   0.5119     1.797     1.537 -83.59  3.58     13.96453   0  0.942
       316   7964.1528   1967.5330  18.1618   0.2588  18.1892   0.2621  18.1161   0.2538     2.049     1.774 -80.38  3.50     14.00303   0  0.978
       317   6730.3374   1969.2186  19.9408   0.5874  20.0919   0.6295  19.4635   0.4743     1.678     1.443 -79.96  3.96     13.95984   0  0.841
       318   3139.1274   1971.2611  19.9591   0.5924  20.1598   0.6495  19.7999   0.5550     1.749     1.459 -60.18  3.99     14.05871   0  0.902
       319   3116.3604   1974.1204  18.8137   0.3494  18.8650   0.3578  18.6731   0.3285     1.971     1.744 -76.58  3.50     14.05787   0  0.965
       320   5930.6333   2006.1283  15.5587   0.0780  15.5526   0.0778  15.5269   0.0769     2.335     2.080 -77.77  3.50     13.96161   0  0.991
       321   5796.7207   1989.5782  19.4899   0.4771  19.5757   0.4963  19.3681   0.4536     1.753     1.586 -77.18  3.60     13.96258   0  0.946
       322   4198.1099   2216.6147  14.5492   0.0490  14.1895   0.0415  14.9103   0.0579    23.724    18.265  -2.29  3.50     1.731251   0  0.001
       323   3868.8328   2001.1552  20.0651   0.6225  21.6580   1.2951  19.7863   0.5515     1.691     0.846 -86.99  7.79       14.017   0  0.194
       324   5591.3677   2003.4146  20.5177   0.7668  21.9355   1.4716  20.0187   0.6150     1.124     0.988 -46.88  7.44     13.97546   0  0.488
       325   1464.2997   2008.5026  20.6823   0.8268  21.1775   1.0379  20.3662   0.7246     1.328     1.148  89.95  4.91     13.93906   0  0.503
       326   5657.1152   2018.4480  17.6458   0.2040  17.6645   0.2058  17.5813   0.1983     2.110     1.869 -80.81  3.50     13.97385   0  0.982
       327   4323.7734   2216.9761  14.9963   0.0603  14.5725   0.0496  15.0306   0.0612    19.304    17.430  10.81  3.50      2.29967   0  0.000
       328   7947.2388   2041.7201  15.4232   0.0733  15.4172   0.0731  15.3950   0.0724     2.372     2.078 -75.98  3.50     14.00939   0  0.985
       329   4175.6592   2071.0303  16.0143   0.0963  16.0859   0.0995  15.9998   0.0956     3.521     3.089  89.67  3.50     5.309006   3  0.926
       330    368.5664   2113.3413  13.4628   0.0297  13.0148   0.0242  15.9373   0.0929   209.512     9.142  -0.04  3.50     6.984097  16  0.000
       331    997.7473   2084.0444  14.1243   0.0403  14.1098   0.0400  14.0875   0.0396     3.168     2.860 -75.56  3.50     13.88353   0  1.000
       332   6300.7183   2043.0665  19.6750   0.5202  20.8411   0.8890  19.5938   0.5040     2.055     1.395  42.94  7.01     13.95284   0  0.005
       333   1515.8882   2053.0298  20.5316   0.7717  21.5517   1.2332  20.5807   0.8023     1.265     1.153  67.21  6.52     13.92604   0  0.580
       334   1195.4755   2066.2708  20.1057   0.6337  20.2424   0.6747  20.3688   0.7255     1.675     1.397 -78.65  3.51     13.90663   0  0.812
       335   1160.8751   2074.7979  18.3429   0.2813  18.3760   0.2856  18.2830   0.2742     2.066     1.827 -79.97  3.50     13.90642   0  0.975
       336   1489.8528   2088.4453  15.8925   0.0910  15.8902   0.0909  15.8526   0.0894     2.352     2.096 -75.87  3.50     13.88381   0  0.984
       337   1312.0676   2082.6682  19.5033   0.4801  19.6288   0.5086  19.1327   0.4066     1.857     1.592 -86.39  3.78     13.89649   0  0.951
       338   2164.1145   2093.7473  20.5724   0.7860  20.9807   0.9479  99.0000  99.0000     1.392     1.163 -71.02  4.87     13.89729   0  0.604
       339   1369.9625   2111.3875  18.4671   0.2979  18.5275   0.3062  99.0000  99.0000     2.065     1.803 -79.91  3.50     13.72762   0  0.975
       340   8513.1006   2214.9021  99.0000  99.0000  16.5812   0.1250  17.3814   0.1808    13.297     7.919  70.77  0.00     7.276107  16  0.000
       341   1560.4836   2112.9102  20.6627   0.8190  21.0340   0.9715  99.0000  99.0000     1.515     1.191  18.13  3.50     13.75909   0  0.617
       342    390.2274   2230.1045  12.5462   0.0195  12.4890   0.0190  15.4398   0.0739   213.554    12.236  -0.48  3.50     4.600206  24  0.000
       343    312.0856   2175.8184  99.0000  99.0000  14.4214   0.0462  16.7517   0.1352   183.558     7.742  -0.02  0.00   0.03523344  16  0.000
       344   2828.3267   2236.4402  13.8875   0.0361  13.8617   0.0357  13.8452   0.0354     5.558     4.891 -80.15  3.50     14.15024   0  0.472
       345   3532.2185   2210.2659  15.0641   0.0621  15.0556   0.0619  15.1805   0.0656     2.388     2.141 -75.29  3.50     13.95265   0  0.987
       346   2797.3240   2194.8296  20.6694   0.8215  20.6263   0.8051  99.0000  99.0000     1.228     0.980  48.84  3.50     14.09323   0  0.795
       347   7474.8394   2220.1067  15.0935   0.0630  15.0833   0.0627  15.0448   0.0616     2.371     2.123 -78.61  3.50     13.84041   0  0.989
       348   5236.9678   2206.3516  19.9908   0.6011  20.8291   0.8841  99.0000  99.0000     3.525     0.952  62.97  3.50     13.81522   0  0.001
       349   6089.7900   2206.3376  18.1405   0.2563  18.1813   0.2611  99.0000  99.0000     2.123     1.839 -76.45  3.50     13.80362   0  0.978
       350   2017.2983   2208.9878  19.1799   0.4141  20.5566   0.7799  99.0000  99.0000     3.116     1.219 -18.46  7.40     13.70396   0  0.001
       351   5091.6572   2213.6750  18.2304   0.2671  18.2675   0.2717  99.0000  99.0000     2.100     1.847 -78.16  3.50     13.81002   0  0.978
       352   7490.0181   2224.1914  19.9563   0.5920  20.8075   0.8753  18.6198   0.3205     1.540     1.256  89.68  6.62     13.84992   0  0.625
       353   7685.8682   2225.4446  20.0904   0.6297  20.9797   0.9476  19.1098   0.4023     1.485     1.369 -61.44  6.44     13.87291   0  0.683
       354   1071.9799   2228.3250  19.6896   0.5235  20.7019   0.8337  20.6089   0.8131     1.942     1.251 -75.18  6.83     13.55777   0  0.366
       355   7746.6812   2231.5730  20.9271   0.9256  21.4794   1.1927  19.4470   0.4706     1.244     0.970 -78.75  5.26     13.87612   0  0.489
       356   5319.5688   2276.1831  17.3883   0.1814  17.9683   0.2368  17.4135   0.1835     7.433     3.451  34.30  5.50     13.97534   0  0.000
       357   2401.0032   2244.9817  19.4713   0.4736  20.7248   0.8427  18.9867   0.3799     1.829     1.803   2.57  7.18     13.90687   0  0.001
       358   5892.7827   2249.5059  18.6102   0.3182  18.6601   0.3255  18.3801   0.2868     2.017     1.750 -79.48  3.50     13.89802   0  0.972
       359   6584.6758   2268.7810  20.1008   0.6329  21.3599   1.1290  19.9825   0.6046     2.137     0.918  49.22  6.99     13.95549   0  0.001
       360   4889.3984   2289.6125  17.1683   0.1638  17.1809   0.1647  17.1129   0.1597     2.130     1.938 -76.20  3.50      14.0022   0  0.983
       361   8337.1045   2299.2603  20.2346   0.6726  20.4350   0.7373  20.3085   0.7051     1.610     1.298 -72.05  4.07     13.90185   0  0.813
       362   3636.3308   2435.9460  14.3500   0.0447  14.4104   0.0460  14.4513   0.0469    10.713     9.870 -71.88  3.90     14.44933   0  0.029
       363   1394.9744   2302.3625  20.7408   0.8494  21.1105   1.0064  20.8404   0.9085     1.441     1.094 -67.30  4.58     13.94901   0  0.690
       364   8491.0674   2306.4155  18.5512   0.3099  19.4450   0.4673  18.0802   0.2497     2.433     2.251 -32.78  6.80     13.68296   0  0.235
       365   5123.3735   2305.2832  19.9881   0.6002  20.0960   0.6307  20.1536   0.6553     1.664     1.450 -81.43  3.50     13.99229   0  0.857
       366   4625.1626   2309.6746  19.7629   0.5416  20.5537   0.7788  19.4684   0.4753     1.841     1.605  82.33  6.33     13.99849   0  0.158
       367   7635.4961   2324.5703  20.4326   0.7370  21.0477   0.9777  20.3494   0.7188     1.560     1.239 -44.74  4.76     13.97502   0  0.684
       368   4589.5195   2352.3560  16.4364   0.1169  16.4393   0.1171  16.4066   0.1154     2.262     2.006 -73.80  3.50     14.00879   0  0.987
       369   4163.9111   2340.0867  20.0673   0.6227  20.2649   0.6817  20.3181   0.7083     1.595     1.470 -68.21  4.09     14.01361   0  0.832
       370   8442.9600   2344.2119  20.1989   0.6617  20.5903   0.7920  20.4882   0.7677     1.633     1.402 -60.85  4.50     13.89804   0  0.694
       371   3815.2031   2364.8325  19.1266   0.4036  19.1835   0.4143  19.1520   0.4102     1.880     1.688 -72.96  3.50     14.11726   0  0.959
       372   4488.3853   2383.2393  17.3109   0.1749  17.3257   0.1761  17.2710   0.1718     2.177     1.931 -74.22  3.50     14.01622   0  0.983
       373   2218.1892   2395.8779  19.3936   0.4570  20.6217   0.8036  19.3528   0.4504     3.576     1.020 -67.27  7.28     13.98335   0  0.001
       374   4966.8110   2420.5447  14.2964   0.0436  14.2844   0.0434  14.2649   0.0430     2.859     2.594 -75.51  3.50     14.01789   0  1.000
       375   3718.0295   2389.3909  19.1902   0.4161  20.0546   0.6189  18.8713   0.3601     3.225     1.930 -22.91  5.96     14.21801   0  0.000
       376   6749.7349   2418.3945  14.4644   0.0471  14.4523   0.0469  14.4350   0.0465     2.441     2.179 -77.88  3.50     13.98866   0  0.990
       377   4335.6924   2394.2285  20.5314   0.7716  22.1949   1.6584  19.6184   0.5098     1.021     0.892 -18.25  8.10     13.99877   0  0.408
       378   7445.8213   2401.9058  20.3254   0.7018  21.2234   1.0602  20.3485   0.7185     1.560     1.211  85.09  6.22     13.97482   0  0.035
       379   8430.7773   2413.0322  17.0558   0.1555  17.0659   0.1562  17.0406   0.1545     2.226     1.927 -74.46  3.50     13.90204   0  0.986
       380   4071.6689   2410.1082  20.3305   0.7029  20.5258   0.7688  19.9616   0.5987     1.508     1.369  87.48  4.00     14.02901   0  0.597
       381   2141.2446   2410.5713  20.8528   0.8948  22.1339   1.6124  20.4719   0.7618     1.077     0.826 -57.33  7.36     13.97792   0  0.463
       382   7657.9087   2416.3452  20.7561   0.8553  21.0174   0.9641  20.5941   0.8075     1.382     1.152 -71.38  4.20     13.97225   0  0.510
       383    641.5753   2433.8018  19.9334   0.5853  20.0883   0.6285  20.2572   0.6882     1.742     1.423 -84.95  3.52     13.94345   0  0.817
       384   7055.2930   2448.8811  18.9817   0.3778  19.7541   0.5388  18.6647   0.3272     2.197     2.071 -74.26  6.38     13.98078   0  0.148
       385   1595.2168   2449.5205  19.0846   0.3959  19.1528   0.4085  19.0532   0.3918     1.954     1.702 -74.35  3.50     13.93904   0  0.960
       386   2939.5732   2449.7339  20.4254   0.7347  21.0801   0.9924  20.3901   0.7328     1.433     1.222 -85.37  5.72     14.04153   0  0.642
       387   2842.4893   2454.5020  20.8675   0.9006  21.3834   1.1411  20.8379   0.9073     1.261     1.001 -76.08  5.32     14.04051   0  0.532
       388   6776.2593   2459.8875  20.0267   0.6114  20.5499   0.7774  20.0640   0.6282     1.643     1.396 -84.22  5.43     13.98354   0  0.760
       389   4143.8687   2462.4546  19.3101   0.4395  19.7399   0.5353  19.2952   0.4385     2.566     1.826   9.43  5.14     14.02299   0  0.038
       390   1200.7583   2463.0645  20.3585   0.7123  20.7582   0.8556  20.3063   0.7043     1.570     1.409 -81.20  4.71     13.94811   0  0.663
       391   1063.3904   2469.7427  19.2795   0.4331  19.3712   0.4517  19.1221   0.4045     1.918     1.677 -77.90  3.50     13.94213   0  0.961
       392   6436.2061   2479.4224  17.9323   0.2328  17.9531   0.2351  17.8596   0.2255     2.115     1.870 -76.35  3.50     13.95728   0  0.981
       393   5571.0386   2493.4946  20.6960   0.8320  21.0590   0.9828  20.3836   0.7306     1.351     1.194 -63.39  4.73     13.96624   0  0.501
       394   7590.4868   2493.4585  21.0310   0.9709  21.4942   1.2008  20.7848   0.8845     1.064     1.053 -86.27  4.97     13.96939   0  0.492
       395   7430.1572   2495.8955  20.2036   0.6630  20.4125   0.7297  20.2904   0.6991     1.620     1.305 -78.77  4.04     13.95535   0  0.793
       396   2531.7788   2498.3987  18.5673   0.3119  18.6175   0.3192  18.4391   0.2947     1.990     1.796 -71.55  3.50     13.97975   0  0.972
       397   2215.9275   2499.8572  20.2634   0.6818  20.7584   0.8557  20.0839   0.6342     1.736     1.257  84.07  5.15     13.96805   0  0.560
       398   4656.2646   2519.3545  20.4866   0.7559  21.8672   1.4261  20.2352   0.6810     1.179     1.017 -15.53  7.45     13.99465   0  0.122
       399   6716.6772   2529.9470  16.8467   0.1412  16.8552   0.1418  16.8092   0.1389     2.192     1.948 -77.66  3.50     13.95681   0  0.983
       400     40.7783   2531.7478  19.2964   0.4367  19.7018   0.5260  19.2928   0.4380     2.559     1.858  79.36  5.04     13.94494   0  0.056
       401   5859.0376   2529.5952  18.4597   0.2969  18.5949   0.3159  18.4019   0.2897     3.051     1.977  -7.26  3.82     13.96627   0  0.844
       402   5155.6650   2544.2134  18.1603   0.2586  18.1871   0.2618  18.0830   0.2500     2.082     1.827 -76.16  3.50     13.98795   0  0.977
       403   8055.3755   2550.5479  17.7452   0.2136  17.7640   0.2155  17.7418   0.2135     2.104     1.846 -80.54  3.50     13.93726   0  0.980
       404   4058.9712   2559.7366  20.1929   0.6602  20.9562   0.9373  20.1350   0.6496     1.566     1.227 -79.18  6.32     14.02087   0  0.703
       405   2671.0554   2571.3057  18.2750   0.2726  18.3132   0.2775  18.2523   0.2703     2.033     1.796 -79.51  3.50     13.99007   0  0.979
       406   7461.5542   2570.0051  19.5565   0.4920  19.6341   0.5098  19.5182   0.4865     1.811     1.570 -77.36  3.50     13.95178   0  0.943
       407   3017.6831   2573.8081  20.1492   0.6471  21.9834   1.5046  19.9277   0.5892     1.264     0.963 -85.35  8.31     14.02803   0  0.094
       408   7177.1260   2590.9675  19.9197   0.5822  21.7086   1.3257  19.6780   0.5242     1.276     1.174  64.65  8.43     13.95453   0  0.078
       409   4332.1304   2596.4160  21.0310   0.9709  21.6781   1.3070  21.0973   1.0285     1.043     0.893 -75.43  5.68     13.98406   0  0.502
       410   8509.5020   2596.1716  21.0697   0.9880  21.2501   1.0731  99.0000  99.0000     1.176     0.932  71.59  3.98     13.74276  16  0.661
       411   1833.2505   2596.7056  18.6161   0.3190  18.6664   0.3265  18.5554   0.3110     1.997     1.773 -80.13  3.50     13.92676   0  0.975
       412    323.0172   2600.4189  20.5556   0.7800  21.0030   0.9578  20.5765   0.8007     1.428     1.212  88.96  4.88     13.92157   0  0.626
       413    630.0501   2697.5208  14.1326   0.0405  14.1126   0.0401  14.0939   0.0397     4.077     3.066 -84.17  3.50     13.99344   0  0.999
       414   5720.2046   2620.7017  19.2576   0.4287  19.3274   0.4427  19.2215   0.4237     1.881     1.622 -77.20  3.50     13.95764   0  0.956
       415   3560.7390   2637.1841  19.9351   0.5863  21.5299   1.2209  19.8604   0.5710     1.385     1.192  -2.02  7.92     14.10158   0  0.025
       416   6586.1387   2639.8286  19.8364   0.5603  20.8586   0.8962  19.6815   0.5251     2.120     1.302  40.42  6.61     13.95119   0  0.001
       417    871.3647   2644.3225  20.2579   0.6798  20.4914   0.7567  19.7850   0.5511     1.588     1.345 -78.59  4.03     13.94375   0  0.752
       418   3463.6904   2654.9453  20.2003   0.6625  21.6364   1.2823  19.9872   0.6060     1.796     0.840  36.49  7.47     14.05513   0  0.030
       419   7429.3457   2658.2227  20.5215   0.7681  21.5304   1.2211  19.6004   0.5055     1.230     1.119  86.30  6.55     13.94858   0  0.672
       420    470.2711   2792.4446  13.9720   0.0376  13.9473   0.0372  13.9474   0.0372     7.804     4.794 -85.21  3.50     14.05843   2  0.037
       421   7440.7129   2666.4670  20.2703   0.6842  21.4112   1.1559  19.6967   0.5288     1.362     1.164  89.67  6.94     13.94875   0  0.698
       422   6979.0068   2676.6628  19.2057   0.4186  19.2789   0.4329  19.1654   0.4128     1.861     1.623 -81.13  3.50     13.95483   0  0.961
       423    903.8529   2832.2058  14.2249   0.0422  14.2077   0.0419  14.2101   0.0419     9.089     4.808 -87.24  3.50     14.03185   0  0.029
       424   4529.2144   2684.9055  17.6263   0.2022  17.6462   0.2041  17.5966   0.1997     2.127     1.896 -80.26  3.50     13.99119   0  0.982
       425   5539.3071   2681.6560  18.3131   0.2775  18.3440   0.2814  18.2842   0.2744     2.034     1.808 -81.25  3.50     13.96904   0  0.975
       426   7241.0347   2679.7056  20.5337   0.7720  20.8414   0.8890  20.5445   0.7886     1.382     1.196 -78.97  4.45     13.95198   0  0.584
       427   4740.0830   2680.5879  19.5955   0.5009  19.6765   0.5199  19.4690   0.4755     1.775     1.517 -72.22  3.50     13.97345   0  0.936
       428   6603.0815   2698.5818  18.3661   0.2843  18.4037   0.2893  18.2970   0.2760     2.009     1.758 -78.67  3.50     13.95031   0  0.975
       429   5512.4517   2702.0615  20.3135   0.6974  20.4921   0.7569  20.0176   0.6147     1.564     1.323 -66.83  3.90     13.96944   0  0.626
       430    248.3226   2713.6445  19.0089   0.3825  19.4551   0.4695  18.9237   0.3689     2.334     2.147  18.63  5.23     13.92687   0  0.210
       431   4838.2114   2734.8362  17.8986   0.2292  17.9266   0.2322  17.8457   0.2240     2.086     1.867 -73.55  3.50     13.97683   0  0.981
       432   2347.5637   2735.2478  19.8192   0.5559  20.9957   0.9546  19.6808   0.5249     1.704     1.534  14.46  6.89     13.97287   0  0.001
       433   6187.7163   2739.5642  20.4330   0.7369  20.6665   0.8202  20.5174   0.7785     1.428     1.306 -63.83  3.81     13.96964   0  0.591
       434   1614.2711   2741.0391  20.6805   0.8264  21.4430   1.1730  20.1278   0.6474     1.359     1.058 -48.89  5.84     13.93631   0  0.534
       435    628.9482   2753.8315  19.0878   0.3967  19.4721   0.4732  18.7840   0.3458     3.290     1.560  89.78  5.41     13.99046   0  0.071
       436   1251.6327   2784.5161  18.0024   0.2407  18.5145   0.3045  18.0211   0.2429     8.005     2.469 -26.38  4.89     13.94012   0  0.000
       437   4180.6455   2793.0183  20.0550   0.6197  21.3619   1.1301  19.8820   0.5768     2.212     0.918  24.58  7.19     14.01655   0  0.007
       438   5930.7676   2811.7683  15.4664   0.0748  15.4603   0.0746  15.4343   0.0737     2.315     2.086 -78.72  3.50     13.97454   0  0.984
       439    468.7759   2846.8240  17.5875   0.1988  18.1554   0.2581  17.5781   0.1980     5.324     4.628 -82.21  5.30     14.03988   3  0.000
       440   6836.6128   2819.1716  20.8009   0.8734  21.5090   1.2091  20.4080   0.7391     1.224     0.981  76.37  5.72     13.94548   0  0.673
       441   3630.4988   2836.6704  17.7873   0.2178  17.8087   0.2199  17.7532   0.2147     2.101     1.851 -73.85  3.50     14.03935   0  0.981
       442     14.9813   2880.0410  14.0886   0.0397  14.0752   0.0394  14.0634   0.0392     2.560     2.265 -80.25  3.50     13.97554  16  0.999
       443    552.1636   2860.2786  19.3314   0.4440  20.3065   0.6950  19.0206   0.3859     3.031     1.401  66.46  6.53     13.97351   0  0.002
       444   3662.3467   2858.6709  18.2421   0.2686  18.3000   0.2758  17.9042   0.2302     2.071     1.854 -79.46  3.73      14.0389   0  0.976
       445   5210.4062   2863.0852  19.3682   0.4511  19.4386   0.4659  19.2956   0.4386     1.822     1.616 -72.07  3.50     13.97638   0  0.951
       446   3664.3420   2875.2991  18.1494   0.2574  18.4741   0.2988  17.9244   0.2323     2.922     2.606  47.60  5.02     14.03941   0  0.737
       447   5930.6099   2877.4932  19.6490   0.5134  19.7504   0.5379  19.6387   0.5147     1.747     1.524 -80.34  3.72     13.97857   0  0.941
       448   7352.2700   2880.4888  20.5326   0.7721  21.9455   1.4784  20.2713   0.6928     1.032     0.997 -80.66  7.68     13.96095   0  0.565
       449   7656.0103   2881.2898  20.1138   0.6367  21.0520   0.9797  20.1628   0.6582     1.877     1.241  81.70  6.34     13.95771   0  0.002
       450   1895.5028   2897.2839  15.7782   0.0863  15.7748   0.0862  15.7457   0.0851     2.334     2.091 -73.31  3.50     13.94432   0  0.987
       451   6761.7910   2884.4734  20.2715   0.6846  21.1425   1.0214  20.1754   0.6621     1.438     1.389 -83.02  6.23     13.94329   0  0.213
       452   1984.8108   2899.9316  19.6842   0.5221  20.1098   0.6348  19.5230   0.4876     2.033     1.882 -41.75  4.62     13.93036   0  0.043
       453   5545.8335   2903.3250  19.8348   0.5593  19.9554   0.5911  19.7511   0.5424     1.681     1.474 -81.61  3.69     13.98908   0  0.902
       454   1199.8674   2905.9106  20.3940   0.7243  21.9836   1.5046  20.4642   0.7591     1.341     0.774  -7.18  7.94     13.95529   0  0.247
       455   1040.0250   2930.4346  15.1661   0.0651  15.1590   0.0649  15.1356   0.0642     2.423     2.164 -74.66  3.50     13.97855   0  0.986
       456   3625.2024   2928.3721  20.3632   0.7141  21.9089   1.4537  20.3633   0.7236     1.380     0.861  32.19  7.71     14.04191   0  0.227
       457   3075.4214   2944.9265  18.1230   0.2542  18.1491   0.2573  18.0205   0.2429     2.043     1.825 -74.22  3.50      14.0043   0  0.977
       458   2456.5276   2951.9536  18.9337   0.3696  20.2581   0.6797  18.5179   0.3057     2.008     1.946 -42.75  7.60     13.97968   0  0.045
       459   1590.2983   2958.7412  19.5840   0.4986  20.0698   0.6231  19.2075   0.4209     1.873     1.791 -53.07  5.35     13.94808   0  0.419
       460   2428.0303   2961.7715  19.3560   0.4486  19.4569   0.4699  18.7678   0.3432     1.854     1.571 -81.16  3.94     13.98117   0  0.950
       461   3093.1348   2962.0408  19.0000   0.3807  19.0594   0.3913  18.7574   0.3416     1.880     1.719 -72.95  3.50     14.00191   0  0.966
       462      6.0916   2962.0955  20.2699   0.6839  21.1832   1.0407  20.4103   0.7358     1.748     1.146  23.63  6.19     13.95556  16  0.036
       463   1127.7419   2965.1167  18.6255   0.3204  18.6684   0.3268  18.6321   0.3223     2.031     1.776 -78.93  3.50     13.96182   0  0.974
       464   3957.8113   2964.8599  19.6352   0.5107  21.0382   0.9735  19.6659   0.5213     2.145     1.213   4.88  7.52     14.03494   0  0.002
       465   1237.8236   2968.4216  19.3320   0.4437  19.4233   0.4627  19.3897   0.4582     1.894     1.639 -78.98  3.50     13.94795   0  0.957
       466   5024.6318   2982.8687  17.8903   0.2284  17.9145   0.2309  17.8658   0.2261     2.056     1.835 -76.85  3.50     13.99644   0  0.979
       467   5465.6826   2988.0317  20.6561   0.8172  21.6343   1.2810  20.3478   0.7183     1.289     1.014 -89.18  6.35     13.98794   0  0.678
       468   4587.6445   2989.4395  20.1274   0.6405  21.9673   1.4934  19.8294   0.5627     1.338     0.850 -38.99  8.16      14.0027   0  0.108
       469   7661.5332   2996.5496  19.5379   0.4878  19.6334   0.5097  19.3732   0.4547     1.771     1.570 -68.27  3.50     13.95941   0  0.940
       470   3390.1812   2998.1792  20.9148   0.9203  21.3722   1.1353  20.9231   0.9453     1.236     1.069 -49.10  4.92     14.00571   0  0.617
       471   2275.1653   3008.9795  19.3725   0.4520  19.4607   0.4707  19.3280   0.4452     1.840     1.593 -75.40  3.50     13.96565   0  0.951
       472   4812.3491   3010.0903  20.3904   0.7225  20.6065   0.7979  20.0659   0.6288     1.532     1.313 -70.51  3.76     13.99374   0  0.610
       473   6337.1128   3013.7100  21.0501   0.9794  21.5475   1.2307  21.6096   1.3234     1.111     1.020 -66.61  4.80     13.98717   0  0.488
       474    842.3138   3020.5549  20.2762   0.6861  21.2334   1.0650  20.1173   0.6442     1.538     1.222 -57.51  6.48     13.95908   0  0.234
       475   7454.3154   3035.9656  19.3785   0.4533  19.4537   0.4692  19.3009   0.4397     1.824     1.610 -83.21  3.56      13.9605   0  0.950
       476   7445.4868   3036.8000  20.8327   0.8861  21.3339   1.1154  20.6888   0.8448     1.219     1.017 -88.78  5.02     13.96061   0  0.503
       477   1983.1863   3049.5168  18.4748   0.2992  19.3614   0.4497  18.3211   0.2791     3.596     2.320  41.19  6.54     13.95692   0  0.000
       478    843.5496   3042.9753  19.2701   0.4312  19.3394   0.4451  18.9746   0.3778     1.901     1.674 -80.63  3.50      13.9539   0  0.962
       479   2744.8811   3046.0259  20.0184   0.6088  20.1985   0.6612  19.7731   0.5481     1.663     1.419 -58.97  4.20     13.97604   0  0.812
       480   3692.8179   3069.8999  20.0275   0.6113  20.1389   0.6433  19.7536   0.5431     1.622     1.473 -78.79  3.50     14.02222   0  0.851
       481   2963.2542   3079.4766  21.0810   0.9936  21.7794   1.3695  21.0743   1.0171     1.019     0.978 -88.59  5.41     14.00155   0  0.488
       482    157.2280   3081.8215  19.6936   0.5247  20.7899   0.8683  19.4541   0.4722     2.349     1.290  60.89  6.97     13.90627   0  0.001
       483   6190.6431   3089.5857  21.0140   0.9633  21.5060   1.2074  20.8390   0.9078     1.086     0.968 -49.33  5.04     14.00529   0  0.494
       484   1447.9918   3103.0793  18.7480   0.3390  18.8016   0.3475  18.7427   0.3392     2.068     1.745 -69.34  3.50     13.93367   0  0.974
       485   2631.0132   3121.6531  18.5280   0.3067  19.2545   0.4281  18.5102   0.3046     3.388     2.765  76.62  5.98     13.98878   0  0.000
       486   5434.1787   3111.7007  20.5983   0.7953  20.9192   0.9215  20.4154   0.7417     1.395     1.150 -72.68  4.38     14.00972   0  0.579
       487   2923.3787   3131.1865  17.5462   0.1950  17.9256   0.2321  17.6074   0.2007    10.639     2.363  14.20  4.63     13.99692   0  0.000
       488   4785.7515   3133.0999  20.0371   0.6139  20.2321   0.6715  20.3095   0.7054     1.594     1.406 -70.02  3.55     14.00031   0  0.792
       489   2343.3799   3164.0964  16.2532   0.1074  16.2536   0.1075  16.2198   0.1058     2.276     2.031 -72.76  3.50     13.96991   0  0.984
       490    526.2501   3181.0767  18.8526   0.3561  19.4131   0.4606  18.7987   0.3482     3.374     2.552  64.86  5.32     13.93704   0  0.000
       491   8203.8643   3176.2119  20.0168   0.6085  20.3684   0.7150  19.9297   0.5898     1.880     1.365 -64.12  4.78     13.96953   0  0.831
       492   7457.5464   3189.1060  19.2047   0.4184  19.2639   0.4299  19.2308   0.4255     1.832     1.642 -76.27  3.50     13.96575   0  0.962
       493   5860.3672   3191.1331  19.9761   0.5976  21.0377   0.9733  20.0746   0.6314     1.882     1.411  80.67  6.34     14.01085   0  0.001
       494   1970.4258   3207.3560  20.6684   0.8213  20.9504   0.9348  20.3677   0.7251     1.361     1.183 -67.64  4.09     13.96092   0  0.533
       495   8287.7061   3214.0200  18.7247   0.3354  18.7686   0.3422  18.6848   0.3303     1.928     1.695 -74.03  3.50     13.97984   0  0.967
       496   5004.0674   3215.3896  20.5857   0.7910  21.2373   1.0669  20.4722   0.7619     1.321     1.231 -57.53  5.41     13.99584   0  0.677
       497   3537.8967   3216.6343  20.2464   0.6766  20.9903   0.9522  20.2669   0.6913     1.544     1.434 -65.85  5.71     14.01913   0  0.107
       498   5142.6113   3217.9709  20.3565   0.7113  20.5033   0.7608  20.3600   0.7225     1.566     1.298 -70.34  3.50     14.00907   0  0.623
       499   5777.8950   3218.1672  19.0609   0.3916  19.1215   0.4026  19.1430   0.4085     1.907     1.692 -77.79  3.50     14.01798   0  0.965
       500    890.1619   3243.2368  16.3496   0.1123  16.3529   0.1125  16.3112   0.1104     2.334     2.060 -72.86  3.50     13.95098   0  0.983
       501   1102.4899   3231.7327  18.8560   0.3563  18.9241   0.3676  18.7596   0.3419     1.981     1.743 -82.76  3.50     13.95156   0  0.971
       502   1147.6018   3231.9807  20.6479   0.8138  21.0182   0.9645  20.3971   0.7353     1.287     1.211 -49.12  4.89      13.9507   0  0.523
       503   5322.6050   3234.0715  20.0855   0.6278  20.2502   0.6771  20.1560   0.6561     1.597     1.402 -77.48  3.74     14.03033   0  0.836
       504   6288.1113   3236.1694  20.6273   0.8064  22.1278   1.6079  20.3064   0.7044     1.193     0.734  80.28  7.72      14.0085   0  0.496
       505   3405.7214   3272.6511  16.7940   0.1378  16.8017   0.1383  16.7474   0.1350     2.228     1.975 -70.54  3.50     14.02133   0  0.983
       506   8196.3867   3456.4185  13.6961   0.0331  13.7268   0.0336  13.8858   0.0361    16.592     9.933 -89.95  3.57     14.19203   0  0.029
       507   2491.3564   3272.5505  18.7178   0.3343  18.7672   0.3420  18.6979   0.3323     1.988     1.755 -72.77  3.50     13.97137   0  0.972
       508   7669.9644   3275.4861  18.7439   0.3385  19.2753   0.4322  18.5554   0.3110     2.281     2.088  59.18  5.78     13.99132   0  0.818
       509    491.5640   3278.1316  19.3976   0.4573  19.4868   0.4764  19.2950   0.4384     1.869     1.679 -79.35  3.50     13.92787   0  0.957
       510   2513.1531   3305.4656  20.9915   0.9534  21.6354   1.2816  20.4422   0.7512     1.087     0.990  16.07  5.39     13.97402   0  0.634
       511   5898.1416   3318.2070  19.8928   0.5749  20.5753   0.7865  19.7233   0.5354     1.675     1.545  44.41  5.90      14.0365   0  0.571
       512   5245.7275   3321.4905  19.4436   0.4676  20.4283   0.7351  19.4615   0.4738     2.252     1.905 -26.22  6.43     14.03751   0  0.001
       513   1219.6227   3321.9062  19.6670   0.5182  20.5706   0.7849  19.5332   0.4899     2.079     1.425  81.33  6.51     13.94556   0  0.013
       514   4695.9209   3358.1787  20.6133   0.8006  20.9329   0.9273  20.6407   0.8256     1.316     1.171 -68.52  3.84     14.01905   0  0.567
       515    173.8467   3360.8586  19.6005   0.5021  19.6980   0.5251  19.4875   0.4796     1.835     1.523 -81.92  3.56      13.9185   0  0.941
       516   7677.9204   3363.9380  17.8642   0.2256  17.8884   0.2282  17.8323   0.2226     2.064     1.841 -76.48  3.50     14.00744   0  0.980
       517   4348.3022   3370.0371  18.6045   0.3175  19.0079   0.3821  18.4325   0.2938     2.975     2.599 -25.67  5.20     14.04035   0  0.076
       518   5825.4517   3548.9805  13.3293   0.0280  13.3329   0.0280  13.4338   0.0293    15.249     7.214 -89.07  3.50     14.19657   0  0.029
       519   7783.3569   3374.4358  18.4500   0.2955  18.4939   0.3015  18.4134   0.2912     2.047     1.773 -73.92  3.50     14.00886   0  0.973
       520   2239.9153   3375.2419  20.4269   0.7348  20.6718   0.8222  20.2406   0.6828     1.433     1.310 -86.52  3.87     13.95988   0  0.667
       521   2016.3428   3396.1802  18.7437   0.3385  19.0722   0.3936  18.6847   0.3302     3.084     2.160 -35.19  4.71     13.95185   0  0.012
       522   6896.8809   3398.8501  18.1118   0.2529  18.1448   0.2568  18.0936   0.2512     2.055     1.795 -77.88  3.50     14.01366   0  0.979
       523   4367.5562   3410.4995  18.7706   0.3427  19.1755   0.4128  18.5635   0.3122     2.532     2.066 -74.09  5.30     14.05368   0  0.709
       524   4943.7227   3422.5251  20.9185   0.9220  21.7239   1.3349  21.5831   1.3060     1.021     0.983  83.63  5.94     14.04507   0  0.502
       525   4836.9829   3437.9158  18.0816   0.2496  18.6413   0.3228  17.8912   0.2288     3.158     2.638  70.30  5.92     14.04196   0  0.093
       526    694.7444   3465.1306  14.2735   0.0432  14.2620   0.0429  14.2456   0.0426     2.511     2.247 -73.86  3.50     13.94882   0  0.998
       527   1146.3615   3481.9092  14.3801   0.0453  14.3684   0.0451  14.3517   0.0448     2.473     2.243 -73.85  3.50     13.96696   0  0.997
       528   4363.1201   3466.9680  18.8278   0.3519  19.2508   0.4274  18.6384   0.3232     2.517     2.100  51.39  5.34     14.06288   0  0.622
       529   6776.5112   3473.4673  20.8572   0.8966  22.1592   1.6313  21.0491   1.0047     0.942     0.934  82.86  7.25     14.02509   0  0.475
       530   2024.2855   3479.3369  18.8544   0.3561  19.0600   0.3914  18.7664   0.3430     2.579     1.912 -72.88  4.41     13.95018   0  0.763
       531   1086.6680   3589.8547  17.4778   0.1890  17.8865   0.2280  17.4727   0.1886     6.000     3.157 -82.11  5.20     13.97205   0  0.021
       532    196.7408   3488.5376  19.0272   0.3858  19.6839   0.5217  18.8137   0.3506     2.352     2.088  66.75  5.90     13.94128   0  0.083
       533   3907.2993   3499.6206  17.7957   0.2186  17.8156   0.2206  17.7521   0.2145     2.140     1.870 -66.93  3.50     14.08705   0  0.981
       534   4173.5654   3505.7710  17.0668   0.1563  17.0772   0.1570  17.0168   0.1528     2.195     1.955 -72.60  3.50     14.08392   0  0.984
       535    248.7504   3500.7925  19.2537   0.4282  19.6838   0.5217  19.0697   0.3948     2.194     1.947  -6.17  5.03     13.94771   0  0.395
       536   6508.4453   3514.8975  18.9069   0.3650  19.7820   0.5458  18.5763   0.3141     2.106     1.831  83.33  6.71     14.04212   0  0.723
       537   6961.8804   3516.9016  20.2309   0.6720  21.3859   1.1425  20.1240   0.6463     1.316     1.200  50.59  7.24     14.01356   0  0.588
       538   5541.4463   3520.7366  19.2817   0.4335  19.3670   0.4508  19.2906   0.4375     1.858     1.659 -69.26  3.55     14.05044   0  0.955
       539   6787.4395   3529.0698  17.2643   0.1712  17.2782   0.1723  17.2280   0.1685     2.162     1.923 -79.95  3.50     14.03209   0  0.982
       540   6930.1304   3535.5203  21.0874   0.9964  21.7432   1.3468  21.0927   1.0262     1.055     0.888 -75.58  5.23     14.01984   0  0.492
       541   6354.3315   3553.2158  17.6887   0.2081  17.7084   0.2100  17.5872   0.1988     2.107     1.873 -76.71  3.50     14.03295   0  0.980
       542   7991.6357   3556.3987  21.2477   1.0729  21.8192   1.3948  20.5229   0.7805     1.026     0.892 -48.34  5.20     14.03303   0  0.497
       543   5939.8008   3563.4849  20.3510   0.7100  21.0137   0.9625  20.1320   0.6487     1.489     1.261 -55.26  5.75     14.11806   0  0.582
       544   5776.1123   3566.4631  19.6944   0.5243  19.8694   0.5682  18.5293   0.3073     1.727     1.525 -75.74  4.22     14.16949   0  0.905
       545   6310.0581   4298.2129  10.4185   0.0073  10.3855   0.0072  15.2232   0.0669  1236.836    15.125   0.05  3.50     5.071339  16  0.000
       546   1335.6768   3596.9448  17.7941   0.2185  17.8190   0.2210  17.7495   0.2143     2.118     1.879 -77.95  3.50     13.94581   0  0.981
       547   7415.7456   3594.7952  20.3177   0.6987  20.5163   0.7654  20.2478   0.6851     1.472     1.362 -81.44  3.89     14.01686   0  0.665
       548   3137.0530   3597.1631  20.3559   0.7112  20.6181   0.8022  20.2585   0.6886     1.559     1.229 -84.77  4.32     13.99955   0  0.681
       549   2010.1371   3611.7495  19.9060   0.5780  20.0358   0.6135  19.8605   0.5710     1.671     1.488 -73.94  3.67     13.96325   0  0.882
       550   2221.5068   3631.7759  20.5413   0.7751  21.4829   1.1947  20.1235   0.6461     1.259     1.031 -88.33  6.42     13.96903   0  0.601
       551   1205.1858   3632.1250  19.5618   0.4932  19.6400   0.5112  19.5097   0.4846     1.813     1.554 -78.67  3.51     13.95367   0  0.947
       552   6883.5576   3655.2795  15.4047   0.0727  15.3979   0.0725  15.3725   0.0716     2.329     2.080 -75.84  3.50     14.04625   0  0.992
       553   5065.0444   3646.7595  19.9563   0.5918  20.3247   0.7008  19.5621   0.4966     1.697     1.528 -79.00  4.89     14.04992   0  0.865
       554    897.0087   3657.8154  18.2457   0.2691  18.6886   0.3299  17.9237   0.2322     2.929     2.414  51.75  5.53      13.9588   0  0.237
       555   4585.5044   3650.4685  20.9070   0.9173  22.0640   1.5613  20.9815   0.9724     0.949     0.922  89.37  6.95     14.06996   0  0.491
       556   5097.2056   3668.6128  18.0461   0.2454  18.0749   0.2486  17.9950   0.2400     2.050     1.827 -77.53  3.50     14.05141   0  0.980
       557   6535.1035   3665.9348  18.7450   0.3385  18.7914   0.3458  18.6920   0.3314     1.954     1.732 -76.64  3.50     14.04401   0  0.970
       558   1968.2478   3697.0264  14.2497   0.0427  14.2377   0.0425  14.2217   0.0422     2.545     2.285 -70.08  3.50     13.96948   0  0.999
       559   6645.1460   3671.6309  20.6496   0.8144  21.0230   0.9666  20.3604   0.7226     1.402     1.156 -70.23  4.60     14.04572   0  0.652
       560    907.5909   3675.7422  19.4506   0.4690  21.3132   1.1050  18.8299   0.3532     1.528     1.415 -31.57  8.32     13.95749   0  0.007
       561    872.7629   3677.2886  19.4436   0.4675  20.0194   0.6089  18.9803   0.3788     2.360     2.072 -77.21  5.41     13.96311   0  0.000
       562   1059.1266   3685.1794  20.8776   0.9047  21.3729   1.1357  21.4387   1.2157     1.240     1.063 -46.44  5.13     13.96343   0  0.570
       563   5199.7852   3686.3445  19.0253   0.3852  19.0794   0.3949  18.9822   0.3791     1.875     1.682 -80.68  3.50     14.04775   0  0.963
       564   5783.9307   3687.7656  20.6625   0.8191  20.9825   0.9487  20.8765   0.9244     1.319     1.212 -86.29  4.19     14.09551   0  0.525
       565   8075.0322   3701.3711  19.4129   0.4608  19.8796   0.5709  19.4033   0.4611     3.485     1.484 -76.66  4.80     14.03979   0  0.000
       566   5393.7139   3697.9805  20.1586   0.6494  20.3325   0.7033  20.1277   0.6474     1.618     1.367 -86.55  4.31     14.02744   0  0.719
       567   3078.8745   3724.8850  18.8926   0.3627  19.3661   0.4507  18.8262   0.3526     5.056     1.824 -72.11  4.95      14.0071   0  0.000
       568   4226.3560   3867.0430  15.6414   0.0811  14.8834   0.0572  15.4007   0.0726    12.610     7.613  88.65  3.50     14.38467   2  0.106
       569   8114.7427   3709.2964  19.1739   0.4129  19.9360   0.5860  19.1329   0.4066     2.880     1.751  42.90  6.13     14.04039   0  0.001
       570     46.2043   3726.1179  18.4932   0.3017  18.9749   0.3764  18.3440   0.2820     3.816     2.225 -67.08  5.45     13.96311   0  0.256
       571   4229.3750   3714.3264  19.0437   0.3885  19.1192   0.4022  99.0000  99.0000     1.876     1.674 -81.21  3.50     14.18091   0  0.960
       572   5419.4600   3723.8450  19.7740   0.5439  19.8820   0.5715  19.6808   0.5249     1.676     1.501 -81.89  3.50     14.03531   0  0.912
       573   1081.5969   3743.4421  17.0745   0.1568  17.0855   0.1576  17.0603   0.1559     2.244     1.984 -74.72  3.50     13.95707   0  0.983
       574   5047.0117   3764.9998  19.4920   0.4776  19.6101   0.5042  19.2657   0.4325     1.946     1.558 -72.87  3.77        14.04   0  0.949
       575   2361.5208   3778.6826  20.8903   0.9100  21.3439   1.1205  20.7771   0.8812     1.220     1.023 -88.24  5.04     13.96032   0  0.500
       576   6250.1250   3780.9570  20.2820   0.6879  21.3201   1.1084  19.8989   0.5814     1.437     1.097  49.35  6.77     14.04727   0  0.645
       577   1033.5934   3788.5608  18.3107   0.2773  18.6731   0.3275  18.2026   0.2642     3.562     2.848  15.97  5.06     13.95432   0  0.010
       578   4847.6978   3784.7742  18.0722   0.2483  18.1004   0.2516  18.0231   0.2432     2.000     1.818 -78.06  3.50     14.03664   0  0.979
       579   2747.1704   3786.0889  20.6026   0.7969  20.9105   0.9178  20.4399   0.7504     1.335     1.210 -79.01  4.62     13.99147   0  0.618
       580   1301.5413   3792.5010  19.1788   0.4139  20.0531   0.6184  19.0164   0.3852     2.921     1.715  66.09  6.32     13.96288   0  0.001
       581   2507.2700   3794.2573  20.0557   0.6194  20.3774   0.7180  19.9239   0.5882     1.544     1.456  86.86  4.74     13.95811   0  0.799
       582   3066.6426   3809.2825  18.9329   0.3695  19.4851   0.4761  18.8442   0.3556     3.890     1.972 -86.12  5.35     14.00388   0  0.000
       583   7763.3022   3832.4497  14.2225   0.0422  14.2091   0.0419  14.1923   0.0416     2.611     2.328 -75.61  3.50     14.03037   0  1.000
       584   6624.4067   3798.4912  19.5659   0.4946  21.5139   1.2120  19.2097   0.4214     1.375     1.265  80.46  8.43     14.05478   0  0.009
       585   4140.4912   3802.7227  20.6402   0.8112  21.4401   1.1713  19.2280   0.4250     1.238     1.024 -88.46  6.37     14.30688   0  0.573
       586   6943.8726   3807.9702  20.8757   0.9038  21.3299   1.1134  20.5665   0.7969     1.227     1.125 -68.66  4.60      14.0416   0  0.496
       587    735.6174   3836.9282  16.2153   0.1056  16.2163   0.1056  16.1829   0.1040     2.335     2.058 -72.49  3.50     13.93696   0  0.989
       588   1036.9314   3839.7383  18.9142   0.3660  18.9690   0.3753  18.8404   0.3550     1.978     1.747 -82.94  3.50     13.94594   0  0.969
       589     32.4508   3844.6235  20.7879   0.8683  21.5446   1.2291  21.1875   1.0747     1.172     1.039 -78.93  6.08     13.98266   0  0.522
       590    128.7264   3848.4392  20.3604   0.7129  20.8291   0.8840  20.1994   0.6696     1.452     1.350  71.59  5.26     13.93442   0  0.672
       591   4199.2344   3890.3777  16.2047   0.1051  16.1891   0.1043  15.9969   0.0955     2.665     2.277  88.25  3.50     14.36179   3  0.981
       592   1350.5040   3854.9187  19.6962   0.5251  20.3249   0.7008  19.5007   0.4825     1.771     1.657 -18.90  5.81     13.97992   0  0.562
       593   5444.1089   3867.8389  17.8105   0.2201  17.8337   0.2225  17.7766   0.2170     2.050     1.858 -73.26  3.50     14.05019   0  0.981
       594   5259.0938   3869.7427  17.0487   0.1550  17.0587   0.1557  16.9932   0.1512     2.163     1.942 -76.01  3.50     14.04911   0  0.983
       595   3321.7788   3864.3076  20.3680   0.7151  20.6014   0.7960  20.4371   0.7493     1.544     1.321 -71.30  3.88     14.01801   0  0.576
       596   1454.8894   3889.1812  14.6857   0.0522  14.6754   0.0520  14.6573   0.0515     2.448     2.189 -71.07  3.50     13.97376   0  0.994
       597   1364.4847   3889.2944  19.8612   0.5665  20.3525   0.7098  19.8759   0.5751     1.922     1.461 -75.84  5.24     13.98982   0  0.432
       598   1276.9028   3898.7490  18.8667   0.3583  19.2631   0.4298  18.7507   0.3405     2.856     2.313 -62.21  4.82     13.97264   0  0.007
       599   1314.6765   3939.2683  17.2249   0.1681  17.5185   0.1924  17.1554   0.1629     5.678     2.955  65.70  4.93     13.98607   0  0.025
       600   1112.5303   3901.3386  19.9756   0.5973  20.8088   0.8759  19.7490   0.5419     2.058     1.274 -34.51  5.98     13.94413   0  0.023
       601   3830.9385   3917.5920  15.3946   0.0724  15.3887   0.0722  15.3666   0.0714     2.335     2.105 -71.65  3.50     14.10868   0  0.983
       602   5483.5938   3908.7891  19.8010   0.5507  19.9245   0.5828  19.8750   0.5749     1.700     1.474 -78.19  3.79     14.05747   0  0.880
       603   3350.4741   3911.7781  20.1182   0.6373  20.2790   0.6862  20.1117   0.6425     1.551     1.383 -70.46  3.77     14.02432   0  0.736
       604   1521.4764   3921.1226  19.7810   0.5456  19.9066   0.5780  19.6441   0.5160     1.722     1.507 -61.15  3.70     13.96622   0  0.892
       605   5100.8638   3946.9685  19.9471   0.5895  20.6571   0.8167  19.7516   0.5426     1.599     1.508 -69.54  5.98     14.04041   0  0.687
       606   2935.5664   3962.1926  19.2675   0.4307  19.3435   0.4460  19.2298   0.4253     1.861     1.640 -72.40  3.50     13.98762   0  0.957
       607   2831.3674   3969.4080  20.7992   0.8726  21.1005   1.0017  20.5223   0.7803     1.393     1.131 -74.43  4.82     13.99194   0  0.532
       608   7265.6372   3971.8218  19.0941   0.3976  19.1658   0.4109  19.0768   0.3961     1.889     1.661 -75.58  3.50     14.05528   0  0.961
       609   3774.0562   3972.3723  20.4127   0.7306  21.5348   1.2236  19.9077   0.5838     1.359     1.009 -33.79  7.00      14.0842   0  0.642
       610    896.5665   3982.3281  19.9152   0.5804  20.0959   0.6307  19.6838   0.5256     1.715     1.450 -73.85  3.73     13.93128   0  0.900
       611   3522.7700   3987.6860  19.1414   0.4066  19.5389   0.4880  19.1113   0.4025     2.176     2.102 -54.81  4.97      14.0544   0  0.315
       612   4992.6543   4003.0640  17.3354   0.1769  17.3485   0.1779  17.1794   0.1647     2.231     1.939 -76.10  3.50     14.06851   2  0.981
       613   4984.2617   4020.4932  14.6814   0.0521  14.6703   0.0518  14.6496   0.0513     2.405     2.162 -73.27  3.50     14.07092   2  0.998
       614   7146.9092   4005.8665  20.2364   0.6733  20.6963   0.8316  20.2031   0.6708     1.593     1.477 -43.27  4.86     14.06701   0  0.573
       615   6470.3525   4026.7737  16.6439   0.1286  16.6489   0.1289  16.6146   0.1270     2.217     1.976 -76.43  3.50     14.05207   0  0.983
       616   7273.8521   4022.6648  20.3738   0.7176  21.4299   1.1659  20.1246   0.6464     1.300     1.111  21.61  6.84     14.08049   0  0.692
       617   2316.2292   4029.3022  19.8445   0.5624  21.5619   1.2391  19.5848   0.5019     1.545     1.208   8.91  8.00     13.97098   0  0.023
       618     12.3047   4036.9141  18.3329   0.2801  18.7180   0.3344  18.2074   0.2647     2.734     2.411  58.21  5.31     13.98534  16  0.179
       619   1580.0693   4043.1907  16.6555   0.1293  16.6606   0.1296  16.6213   0.1274     2.255     1.999 -70.39  3.50     13.96506   0  0.984
       620   3983.0542   4035.3203  20.5457   0.7765  21.1731   1.0359  20.5876   0.8049     1.502     1.234 -67.21  5.05     14.12618   0  0.131
       621   7244.9521   4035.2673  20.3879   0.7223  21.6203   1.2728  20.0167   0.6144     1.389     1.073  42.34  7.12     14.08226   0  0.009
       622   3478.2622   4043.9470  19.6313   0.5098  20.8029   0.8735  19.5780   0.5003     2.013     1.500  64.38  7.02     14.05334   0  0.005
       623   2260.4431   4071.1746  14.9143   0.0580  14.9049   0.0577  14.8853   0.0572     2.427     2.164 -70.45  3.50      13.9672   0  0.996
       624   7380.4961   4080.3201  16.5213   0.1216  16.5253   0.1218  16.4962   0.1202     2.221     1.984 -74.92  3.50     14.11793   0  0.984
       625   2503.9863   4072.5205  21.2524   1.0752  21.8722   1.4292  20.9313   0.9491     1.063     0.795 -88.21  5.35     13.95837   0  0.488
       626    283.6595   4079.8677  19.7009   0.5264  20.8006   0.8726  19.2254   0.4245     1.712     1.460  74.04  7.14     13.92452   0  0.191
       627   8413.0537   4100.8394  17.4169   0.1836  17.4322   0.1849  17.3655   0.1795     2.147     1.893 -73.62  3.50     13.97045   0  0.982
       628   5116.1113   4120.7969  15.4909   0.0756  15.4853   0.0754  15.4627   0.0747     2.325     2.092 -73.78  3.50     14.05967   0  0.986
       629   6508.3320   4126.8071  19.9980   0.6030  20.1433   0.6446  19.7379   0.5391     1.604     1.404 -69.14  3.82     14.05036   0  0.819
       630   4657.9956   4134.7842  20.0254   0.6112  21.7955   1.3798  19.8624   0.5715     1.265     1.128  -0.58  8.19     14.09253   0  0.310
       631   3082.8569   4134.6528  19.0210   0.3847  19.7855   0.5467  18.6813   0.3297     2.525     1.848 -50.18  6.20     14.01691   0  0.118
       632   1332.2372   4141.8618  18.7019   0.3321  19.1950   0.4165  18.5527   0.3107     2.512     2.345 -80.71  5.49     13.95901   0  0.145
       633   2034.1417   4139.7109  19.7451   0.5367  19.8577   0.5651  19.6829   0.5254     1.774     1.529 -76.58  3.50     13.95599   0  0.927
       634    126.3863   4142.7925  19.6513   0.5140  19.7793   0.5451  19.4554   0.4725     1.786     1.585 -77.79  3.83     13.92313   0  0.931
       635   6466.1929   4146.9492  20.2969   0.6921  20.5210   0.7671  19.9400   0.5927     1.625     1.313 -77.86  3.80     14.05144   0  0.736
       636   1119.9146   4162.3540  18.5496   0.3097  19.1507   0.4081  18.5392   0.3087     3.664     2.644 -51.66  5.43     13.94446   0  0.000
       637   1518.3237   4149.8906  19.8484   0.5634  20.6970   0.8319  19.8350   0.5642     1.805     1.569 -23.19  6.33       13.956   0  0.026
       638    383.2719   4168.1353  15.6866   0.0828  15.6842   0.0827  15.6562   0.0816     2.377     2.111 -73.46  3.50     13.95042   0  0.986
       639   7552.2266   4160.3491  18.7162   0.3341  18.7638   0.3415  18.5583   0.3115     1.952     1.726 -74.10  3.50     14.09746   0  0.969
       640   4196.5156   4302.6479  14.9958   0.0602  14.4931   0.0478  15.1694   0.0652    23.826    14.212   0.74  3.50     3.794724   0  0.000
       641   6070.5522   4177.9302  19.0912   0.3974  19.9486   0.5893  18.9152   0.3675     2.428     1.740 -68.03  6.57     14.03357   0  0.079
       642   6364.8042   4187.6450  20.4440   0.7407  20.7146   0.8386  99.0000  99.0000     1.456     1.256 -69.09  4.18     14.05527   0  0.587
       643   6132.5063   4199.6230  17.8283   0.2219  17.8434   0.2235  18.6552   0.3258     2.055     1.810 -77.33  3.50     14.03144   0  0.981
       644    902.3943   4222.9785  18.6115   0.3187  19.4041   0.4587  18.6163   0.3199     5.108     2.030 -89.17  5.80     13.92788   0  0.000
       645   7752.2368   4204.7476  20.3292   0.7024  20.6942   0.8308  99.0000  99.0000     1.698     1.374 -66.22  3.50     14.04302   0  0.291
       646   2877.2666   4212.6528  19.7016   0.5260  19.8195   0.5553  19.7434   0.5405     1.740     1.549 -79.16  3.50     13.99086   0  0.928
       647    351.2332   4234.7954  19.7458   0.5375  20.7928   0.8695  20.0066   0.6115     2.082     1.505 -55.02  6.61     13.95554   0  0.006
       648    405.8060   4235.4863  19.6555   0.5152  20.0282   0.6114  19.6839   0.5257     1.952     1.753   6.97  4.62     13.95774   0  0.661
       649   2321.7356   4235.2773  19.6217   0.5074  20.2794   0.6863  19.4994   0.4823     1.872     1.842 -59.88  5.70     13.96187   0  0.042
       650   4328.6255   4437.6084  99.0000  99.0000  12.4598   0.0187  14.8374   0.0560   845.941    13.818  -1.00  0.00     1.461804  19  0.000
       651   4201.1289   4447.2031  14.0219   0.0385  13.7561   0.0340  14.7502   0.0538    25.657    21.704   3.59  3.50   0.02257939   0  0.016
       652   4155.3994   4239.9902  19.2886   0.4349  19.3339   0.4440  20.4493   0.7537     1.799     1.618 -69.46  3.50     13.91829   0  0.958
       653   4854.3472   4260.6763  19.8034   0.5517  20.5612   0.7814  99.0000  99.0000     1.668     1.405 -75.43  6.51     13.19165   1  0.615
       654   6456.3960   4351.9570  99.0000  99.0000  12.3243   0.0176  16.7426   0.1347  1202.561     8.136   0.00  0.00   0.03489168  16  0.000
       655   3731.2605   4321.3853  14.3183   0.0441  14.3001   0.0437  14.6054   0.0503     2.294     2.115 -41.32  3.50     13.53639   0  0.998
       656   7274.9370   4423.2637  11.9500   0.0148  11.7583   0.0136  13.7894   0.0345   690.693    10.646   0.06  3.50     8.787772  19  0.001
       657   7982.2642   4407.7197  14.2800   0.0433  14.0093   0.0382  14.7457   0.0537    49.520     9.414   2.14  3.50     5.047583   3  0.867
       658   1185.8882   4432.0161  17.1336   0.1612  17.2869   0.1730  19.2204   0.4235     4.783     4.052 -60.09  3.50      13.8782   0  0.052
       659   1226.4553   4435.9761  16.3760   0.1137  16.3772   0.1138  16.5732   0.1246     2.335     2.057 -68.69  3.50      13.8938   0  0.985
       660   6383.9395   4454.9546  15.6275   0.0805  15.6242   0.0804  15.6755   0.0824     2.315     2.036 -74.83  3.50     14.06921   0  0.984
       661    191.5786   4443.8765  20.7818   0.8658  21.5159   1.2130  20.8151   0.8975     1.229     0.976 -75.25  5.88     13.91702   0  0.543
       662   1669.2114   4451.8237  20.0689   0.6235  20.7218   0.8414  19.9166   0.5862     1.709     1.427 -64.84  5.76     13.97468   0  0.547
       663   2050.7502   4457.3076  18.8311   0.3522  18.8800   0.3602  18.7409   0.3390     1.941     1.730 -72.71  3.50     13.96239   0  0.971
       664    559.6624   4483.2402  19.9824   0.5993  21.0071   0.9597  20.0360   0.6200     1.730     1.476 -63.11  6.46     13.95211   0  0.001
       665   2237.6597   4488.5679  20.8109   0.8771  21.2454   1.0709  21.1443   1.0523     1.301     1.069 -76.95  4.47     13.97484   0  0.512
       666   2958.8154   4489.8423  18.7305   0.3365  19.3618   0.4498  18.4980   0.3029     3.196     1.931  16.10  5.96      14.0015   0  0.056
       667   2962.3672   4506.7593  20.0994   0.6324  20.9250   0.9240  18.7946   0.3475     1.756     1.225 -56.71  6.31     14.00631   0  0.631
       668    632.0922   4521.3003  18.8982   0.3634  19.1920   0.4159  18.8456   0.3558     2.728     2.030 -53.80  4.45     13.95219   0  0.190
       669   6392.9316   4562.1748  14.2178   0.0421  14.2049   0.0418  14.1824   0.0414     2.715     2.433 -76.86  3.50     14.06947   0  1.000
       670   7789.2104   4530.2671  19.0096   0.3825  19.1490   0.4077  18.4302   0.2935     1.943     1.699 -71.72  4.31     14.04575   0  0.954
       671   4905.4619   4531.0049  20.6796   0.8261  21.6599   1.2962  19.0076   0.3836     1.169     0.969 -88.86  6.70     14.08471   0  0.497
       672   2971.0818   4534.4355  19.7750   0.5446  20.4356   0.7376  19.4063   0.4618     2.609     1.260 -86.67  5.64     14.00797   0  0.005
       673   6743.8994   4540.1367  19.5719   0.4957  19.9055   0.5777  18.6003   0.3176     1.725     1.576 -77.19  5.17     14.06018   0  0.911
       674   8492.7285   4547.9263  19.3967   0.4572  19.6217   0.5069  18.4569   0.2972     1.826     1.648 -77.55  4.67     13.93558   0  0.943
       675   5588.2480   4552.2920  19.7136   0.5291  19.9924   0.6013  18.7284   0.3370     1.758     1.526 -81.55  4.98     14.01258   0  0.901
       676    178.0878   4561.5610  20.0444   0.6161  20.2067   0.6637  20.0583   0.6266     1.716     1.447 -72.91  3.75     13.93649   0  0.800
       677   7306.9639   4563.4590  20.5121   0.7644  20.8703   0.9010  19.0942   0.3993     1.401     1.214 -85.69  4.87     14.48765   0  0.561
       678    827.1285   4578.3867  20.3098   0.6963  20.6714   0.8221  20.5256   0.7815     1.471     1.267 -70.02  4.69     13.94316   0  0.635
       679   4643.4639   4623.2090  15.3472   0.0708  15.3334   0.0703  15.3144   0.0697     2.672     2.120 -63.10  3.50     14.08256   0  0.992
       680   8000.4814   4600.6865  20.2820   0.6873  20.4741   0.7507  22.4241   2.0150     1.564     1.371 -85.50  3.53     14.00729   0  0.601
       681   1047.8962   4617.1035  19.6359   0.5104  19.7621   0.5408  19.7051   0.5309     1.813     1.534 -78.13  3.56     13.94578   0  0.936
       682   8179.0347   4637.2305  15.1475   0.0646  15.1400   0.0643  15.1185   0.0637     2.389     2.141 -74.18  3.50     13.97786   0  0.984
       683   2474.6165   4622.9922  19.5147   0.4831  20.2955   0.6915  19.5009   0.4826     2.443     1.528  22.62  6.21     13.98457   0  0.006
       684   6259.3945   4629.6323  21.1973   1.0479  21.7789   1.3691  99.0000  99.0000     1.034     0.892 -47.88  4.55     14.02031   0  0.490
       685   5933.5664   4629.9326  20.7061   0.8363  21.5983   1.2599  99.0000  99.0000     1.245     0.976 -74.93  6.50     14.02148   0  0.550
       686   5280.9014   4656.4473  15.1306   0.0641  15.1222   0.0638  15.0999   0.0632     2.379     2.138 -73.72  3.50     14.03415   0  0.984
       687   2953.8652   4667.6250  19.4505   0.4686  19.5724   0.4955  19.2729   0.4339     1.826     1.588 -59.82  3.66     13.98582   0  0.948
       688   1310.5647   4668.0005  19.3226   0.4418  19.4147   0.4608  19.3064   0.4408     1.933     1.684 -67.74  3.58     13.94793   0  0.955
       689   1262.9912   4675.5303  18.9919   0.3798  20.5282   0.7698  18.9008   0.3650     2.490     1.756  63.44  7.76     13.94355   0  0.001
       690   3218.9233   4690.2700  18.9475   0.3716  19.0020   0.3810  18.9356   0.3710     1.996     1.707 -68.09  3.50     14.01277   0  0.968
       691   7816.9556   4692.4917  19.3359   0.4445  19.4093   0.4597  19.2324   0.4259     1.819     1.564 -82.14  3.50     14.02295   0  0.954
       692   1726.7661   4703.6885  21.1141   1.0087  21.6408   1.2848  21.4209   1.2050     1.128     0.949  85.52  4.71     13.96129   0  0.558
       693   5268.9595   4708.5117  19.4318   0.4645  19.5311   0.4862  19.3331   0.4463     1.789     1.610 -84.43  3.67     14.03119   0  0.950
       694   3574.8472   4723.7119  20.5188   0.7667  20.8123   0.8772  20.3050   0.7039     1.455     1.205 -74.55  4.42     14.03391   0  0.578
       695   1127.9430   4724.1460  19.4778   0.4745  19.5616   0.4931  19.3450   0.4488     1.894     1.561 -75.40  3.61     13.93154   0  0.949
       696   2668.6484   4753.4380  15.4165   0.0731  15.4108   0.0729  15.3871   0.0721     2.351     2.103 -70.56  3.50     13.98309   0  0.985
       697   3315.3457   4735.0371  18.9911   0.3792  19.0482   0.3892  18.9706   0.3771     1.944     1.701 -62.65  3.50     14.01596   0  0.964
       698    189.6788   4739.4873  18.8643   0.3580  19.6247   0.5077  18.8552   0.3574     3.364     2.137  13.85  5.92     13.92945   0  0.000
       699   6032.3682   4742.9873  18.6084   0.3179  18.6566   0.3250  18.5007   0.3033     2.050     1.728 -75.70  3.50     14.01472   0  0.975
       700    339.5587   4745.1792  19.6964   0.5248  19.7926   0.5484  19.7344   0.5382     1.817     1.576 -56.54  3.84     13.93422   0  0.937
       701   4961.2197   4766.0562  17.4987   0.1907  17.5140   0.1920  17.4340   0.1853     2.166     1.910 -75.49  3.50     14.07642   0  0.982
       702   7938.3848   4761.4058  21.1051   1.0047  21.7517   1.3521  21.0280   0.9945     1.100     0.969 -49.12  5.23     13.98575   0  0.500
       703   6984.3657   4763.0967  19.6497   0.5140  20.2418   0.6746  19.5510   0.4940     2.214     1.805 -81.09  5.24     14.04946   0  0.000
       704   4843.1885   4898.1826  13.9369   0.0370  13.9136   0.0366  13.9157   0.0366     7.950     5.381 -88.70  3.50     14.17256   0  0.033
       705   6064.1567   4765.5239  20.7047   0.8358  22.0468   1.5490  20.6136   0.8150     1.064     0.913  76.98  7.34     14.02155   0  0.492
       706   1634.2847   4771.5488  19.0004   0.3811  19.4676   0.4723  18.9167   0.3678     3.355     2.006 -39.89  5.19     13.94425   0  0.001
       707    983.3187   4779.5630  19.9234   0.5832  21.2576   1.0770  19.6930   0.5279     1.731     1.188 -48.45  7.45     13.92281   0  0.010
       708   3357.9832   4785.0327  19.5327   0.4868  19.8026   0.5510  19.5126   0.4852     2.389     1.648 -23.94  4.14      14.0118   0  0.081
       709   8163.4067   4821.6562  14.1584   0.0409  14.1458   0.0407  14.1312   0.0404     2.501     2.243 -73.84  3.50     13.97464   0  0.999
       710   4492.7642   4812.8628  15.6439   0.0812  15.6398   0.0810  15.6153   0.0801     2.359     2.092 -72.32  3.50      14.0733   0  0.986
       711   8344.1533   4800.7935  18.3380   0.2807  18.3778   0.2858  18.1944   0.2632     2.100     1.763 -75.49  3.50     13.96262   0  0.975
       712    198.5143   4798.7183  19.5519   0.4914  20.3660   0.7143  19.3113   0.4418     1.889     1.794  -0.15  6.32     13.93289   0  0.006
       713   8266.2285   4811.1123  16.5801   0.1249  16.5844   0.1251  16.5515   0.1233     2.232     2.005 -75.87  3.50     13.97075   0  0.983
       714   3082.9153   4804.1665  19.8238   0.5569  20.5781   0.7876  19.3989   0.4602     1.838     1.411 -62.76  6.21     14.00332   0  0.728
       715   8038.5938   4808.3960  20.1190   0.6381  22.0116   1.5242  20.0430   0.6221     1.131     0.996  44.49  8.37     13.97723   0  0.025
       716   7376.4663   4842.6763  17.8798   0.2274  18.4516   0.2958  17.8503   0.2245     5.205     2.605 -64.75  5.44     14.04576   0  0.008
       717   4980.1035   4823.2866  21.0375   0.9737  21.5402   1.2266  20.7231   0.8587     1.114     1.020  71.00  4.84     14.07268   0  0.503
       718    189.6035   4827.5688  19.7438   0.5368  20.4921   0.7570  19.5049   0.4835     2.388     1.369  19.70  5.74     13.93364   0  0.004
       719   6641.2061   4839.2891  20.2093   0.6647  20.4006   0.7257  20.1838   0.6647     1.581     1.363 -77.34  3.82     14.00486   0  0.763
       720   7721.1123   4848.7578  17.0848   0.1576  17.0954   0.1584  17.0467   0.1549     2.251     1.953 -74.00  3.50      14.0046   0  0.983
       721     19.8815   4851.0522  20.1671   0.6524  21.4030   1.1516  99.0000  99.0000     1.318     1.194 -47.57  7.17     13.96291  16  0.612
       722   2696.9949   4862.0786  20.9092   0.9178  21.2345   1.0655  20.5626   0.7954     1.206     1.177 -65.10  4.26     13.98226   0  0.507
       723   7778.4009   4864.1230  20.8336   0.8869  21.6584   1.2953  20.3782   0.7287     1.229     0.978 -73.44  6.26     13.98934   0  0.491
       724   2778.0186   4869.6719  19.5394   0.4881  19.6504   0.5137  19.3585   0.4516     1.783     1.552 -73.52  3.68     13.98002   0  0.944
       725   1184.1023   4874.2319  18.5068   0.3034  18.5460   0.3089  18.4650   0.2983     2.117     1.766 -71.06  3.50     13.91475   0  0.978
       726   6372.5010   4879.5186  20.8027   0.8743  22.0913   1.5811  20.0920   0.6366     0.937     0.934 -30.38  7.31     14.01258   0  0.445
       727   3365.7324   4881.5557  19.7750   0.5441  19.9110   0.5792  19.7897   0.5523     1.747     1.519 -76.36  3.69     14.01213   0  0.908
       728     93.0828   4900.5845  15.6084   0.0798  15.6042   0.0797  15.5756   0.0787     2.372     2.128 -76.23  3.50       13.926   0  0.984
       729    794.6677   4895.5000  20.5257   0.7697  21.5894   1.2548  20.5732   0.7994     1.363     1.020  -4.31  6.75     13.91059   0  0.362
       730   2298.8169   4909.0918  19.3150   0.4403  19.4980   0.4789  19.1160   0.4034     2.092     1.841 -29.28  4.23     13.94939   0  0.841
       731   1914.5215   4909.0078  20.0026   0.6049  21.0235   0.9669  19.8346   0.5641     1.884     1.214 -13.10  6.58     13.96571   0  0.001
       732   7152.1050   4910.8916  20.0961   0.6315  21.0743   0.9898  20.0792   0.6327     1.734     1.139 -67.39  6.73      14.0407   0  0.368
       733   7008.1538   4928.5796  20.9139   0.9201  21.8444   1.4111  20.5373   0.7859     1.053     0.901  81.15  6.45     14.01667   0  0.506
       734    688.3179   4930.6792  19.7674   0.5422  19.8638   0.5667  19.6468   0.5166     1.758     1.521 -75.37  3.50     13.91706   0  0.917
       735   3872.4248   4933.7046  19.6237   0.5075  19.7086   0.5276  19.7498   0.5421     1.724     1.551 -71.31  3.50     14.04459   0  0.935
       736   6022.8110   4959.3823  15.0557   0.0619  15.0472   0.0617  15.0246   0.0610     2.409     2.133 -72.78  3.50     14.04424   0  0.992
       737   4844.0337   4952.7656  17.8842   0.2280  19.0032   0.3814  17.8054   0.2199     5.076     3.022   3.27  6.82     14.14713   0  0.000
       738   3434.6414   4948.6763  19.8671   0.5682  20.7419   0.8493  19.5850   0.5019     2.017     1.376 -43.21  6.29     14.01818   0  0.011
       739   4653.6392   4955.4531  18.1378   0.2559  18.1695   0.2597  18.1023   0.2522     2.148     1.830 -71.54  3.50     14.08707   0  0.977
       740   6216.4097   4954.6030  19.5931   0.5009  20.8190   0.8800  19.3612   0.4522     1.712     1.484 -44.16  7.28      14.0022   0  0.042
       741   6694.1299   4956.9155  19.8788   0.5708  20.0694   0.6230  19.5878   0.5026     1.656     1.448 -59.85  4.11     14.00188   0  0.858
       742   5192.3511   4957.4224  20.0234   0.6101  20.1503   0.6467  19.9645   0.5995     1.680     1.470 -75.15  3.50     14.02632   0  0.766
       743   3484.3687   4969.6250  18.0353   0.2443  18.6369   0.3221  17.9393   0.2339     3.463     2.588  38.26  6.08     14.01734   0  0.022
       744   7133.6851   4971.6885  19.9832   0.5992  20.5327   0.7713  20.2012   0.6702     2.090     1.498  55.47  4.68     14.02529   0  0.006
       745   7189.5107   4980.0059  20.5756   0.7876  21.7941   1.3788  20.1301   0.6481     1.174     0.978 -87.99  7.32     14.02447   0  0.536
       746    685.0667   4992.7324  17.7841   0.2175  17.8078   0.2198  17.7618   0.2155     2.158     1.906 -75.67  3.50     13.91566   0  0.982
       747   2156.5278   5020.2998  15.0681   0.0623  15.0606   0.0620  15.0385   0.0614     2.429     2.143 -68.71  3.50     13.97569   0  0.988
       748   3197.8777   5004.1885  20.4547   0.7443  20.7067   0.8356  20.3093   0.7053     1.500     1.298 -88.92  4.03     14.00603   0  0.539
       749   3899.3633   5023.6113  18.2318   0.2675  19.0281   0.3857  18.1215   0.2545     3.479     2.780  76.32  6.38      14.0464   0  0.000
       750   1746.0426   5027.2822  18.9280   0.3688  20.3120   0.6968  18.7269   0.3368     2.364     2.058  25.30  7.45     13.96041   0  0.001
       751   2222.5500   5034.3936  18.9908   0.3796  20.1129   0.6357  18.9338   0.3707     3.554     1.479  45.96  7.02     13.97703   0  0.000
       752     62.7880   5052.9663  15.1546   0.0648  15.1476   0.0646  15.1237   0.0639     2.432     2.152 -75.24  3.50     13.92332   0  0.987
       753   3411.3289   5034.4351  19.8219   0.5560  19.9215   0.5820  19.8745   0.5747     1.732     1.467 -76.04  3.55     14.01182   0  0.895
       754   5239.0435   5044.0098  20.5809   0.7892  21.3144   1.1054  20.3982   0.7357     1.230     1.195 -83.31  5.82     14.02376   0  0.639
       755   3789.8423   5043.7788  20.8761   0.9040  21.3226   1.1096  20.8564   0.9155     1.228     1.066 -48.31  4.98     14.04354   0  0.511
       756   6091.3965   5049.4443  18.7574   0.3405  18.8104   0.3489  18.7314   0.3375     2.013     1.718 -77.44  3.50     14.02557   0  0.969
       757   1331.4501   5060.6138  18.2280   0.2671  19.1588   0.4097  18.1834   0.2619     3.888     2.935  23.79  6.47     13.95269   0  0.000
       758   5646.9478   5058.3950  18.5630   0.3117  20.4570   0.7450  18.2983   0.2761     3.599     1.475 -36.25  8.26     14.05128   0  0.006
       759   1108.1532   5060.4307  18.7966   0.3469  19.4508   0.4686  18.6407   0.3236     2.311     1.975  66.28  6.18     13.93196   0  0.466
       760   6919.1621   5070.3989  18.6737   0.3276  18.7261   0.3356  18.5107   0.3047     1.977     1.764 -85.34  3.50     14.00814   0  0.971
       761   1637.5187   5073.0386  20.4956   0.7590  21.6477   1.2889  19.7288   0.5368     1.342     0.969  65.86  7.04     13.95864   0  0.601
       762   7378.4702   5073.0078  19.2726   0.4320  20.0299   0.6118  18.9997   0.3822     2.055     1.837 -86.16  6.24     14.00826   0  0.294
       763   4120.3369   5076.3545  20.4541   0.7441  20.7147   0.8386  19.6041   0.5064     1.476     1.316 -52.52  3.97      14.0613   0  0.542
       764   6941.5044   5085.5396  19.9699   0.5958  20.7572   0.8553  19.4656   0.4747     1.967     1.442  16.98  5.77     14.00864   0  0.001
       765   5504.7002   5113.5078  14.4169   0.0461  14.4042   0.0459  14.3871   0.0455     2.444     2.204 -74.51  3.50     14.04854   0  0.999
       766   2811.6294   5086.6426  20.3681   0.7156  21.1667   1.0328  20.4505   0.7541     1.619     1.158 -44.87  5.85      13.9898   0  0.186
       767   2052.2122   5090.6475  18.5102   0.3038  18.5548   0.3101  18.4696   0.2989     2.000     1.767 -71.53  3.50     13.96693   0  0.973
       768   1748.8068   5093.7827  20.0483   0.6175  20.6472   0.8130  20.0423   0.6219     1.600     1.523 -75.20  5.52     13.96855   0  0.608
       769   7980.1934   5102.8677  19.9666   0.5944  20.1429   0.6445  19.9167   0.5862     1.636     1.454 -60.84  3.96     13.96812   0  0.813
       770   8429.1123   5105.0083  19.9327   0.5854  20.3706   0.7158  19.7349   0.5384     1.728     1.609 -88.05  4.87     13.92693   0  0.805
       771   1792.9377   5106.8560  20.1145   0.6368  21.7360   1.3425  20.0118   0.6130     1.685     0.865 -85.76  7.89     13.96614   0  0.051
       772    716.3073   5117.6753  20.3043   0.6946  20.5548   0.7791  20.1955   0.6684     1.570     1.348 -66.30  4.31     13.90645   0  0.674
       773    795.2801   5141.8672  20.5061   0.7623  20.8062   0.8747  20.0769   0.6321     1.478     1.225 -76.55  4.71     13.91238   0  0.593
       774   1175.3336   5174.7822  15.3323   0.0703  15.3257   0.0701  15.3014   0.0693     2.430     2.146 -70.10  3.50     13.95403   0  0.993
       775   6318.5146   5166.6279  19.4036   0.4590  20.3506   0.7092  18.9111   0.3668     2.255     1.567 -84.18  6.60     14.02492   0  0.024
       776   2786.6985   5178.7222  20.7659   0.8593  21.2102   1.0536  20.3046   0.7038     1.203     1.146 -58.94  4.93     13.99124   0  0.528
       777   7984.0542   5181.2437  18.9190   0.3668  18.9775   0.3768  18.8342   0.3539     1.955     1.704 -72.01  3.50     13.97079   0  0.962
       778   3322.2920   5184.2012  18.5286   0.3064  18.5720   0.3126  18.4629   0.2980     2.076     1.770 -76.50  3.50     14.02376   0  0.975
       779   3359.1914   5185.0103  20.1498   0.6471  20.7561   0.8548  19.9814   0.6043     1.610     1.408 -89.61  5.51     14.02557   0  0.698
       780   6728.9834   5189.0684  20.0680   0.6233  20.7994   0.8721  19.9418   0.5932     1.831     1.538  55.29  5.58     13.99094   0  0.000
       781   5911.8755   5196.2505  18.9921   0.3794  19.0471   0.3891  18.8675   0.3594     1.971     1.681 -78.47  3.50     14.04446   0  0.967
       782   7397.9941   5204.0742  18.9922   0.3796  19.3543   0.4482  18.8445   0.3556     2.891     1.952  82.21  4.85      13.9966   0  0.076
       783   3669.7368   5206.5581  18.7371   0.3373  18.7902   0.3456  18.6928   0.3315     1.963     1.719 -72.67  3.50     14.01892   0  0.970
       784   6378.9395   5223.3813  16.5075   0.1208  16.5102   0.1209  16.4904   0.1199     2.229     1.997 -77.69  3.50     14.03557   0  0.983
       785   7246.1162   5218.1846  19.9897   0.6012  21.7846   1.3728  19.5772   0.5001     1.456     0.879 -88.77  8.26     13.99396   0  0.391
       786   7030.9893   5219.0522  20.7756   0.8634  21.8516   1.4157  20.1312   0.6484     1.265     0.726 -74.82  7.02      13.9768   0  0.528
       787   8245.7744   5298.2002  15.7702   0.0861  16.0859   0.0995  16.0388   0.0974    13.130     7.346  19.31  4.87     13.98452   0  0.000
       788    258.6815   5239.1807  19.3124   0.4399  19.8475   0.5625  19.0988   0.4002     2.332     1.724 -73.09  5.48     13.92696   0  0.177
       789   7694.0278   5246.8350  19.7285   0.5326  19.8408   0.5607  19.6683   0.5218     1.767     1.551 -82.61  3.50     13.95852   0  0.934
       790     10.2819   5250.5908  20.6670   0.8208  21.0621   0.9842  99.0000  99.0000     1.398     1.126 -80.64  4.19     13.92856  16  0.528
       791   8405.5293   5273.8643  18.1139   0.2531  18.1429   0.2565  18.0669   0.2481     2.128     1.833 -71.64  3.50       13.948   0  0.979
       792   6004.3716   5271.1670  20.3964   0.7246  20.6201   0.8029  20.6941   0.8469     1.547     1.315 -72.23  3.78     14.06554   0  0.618
       793   6331.9570   5287.5107  16.3024   0.1099  16.3048   0.1100  16.2756   0.1086     2.245     2.011 -76.61  3.50      14.0407   0  0.983
       794   8323.9951   5295.9771  17.7383   0.2132  19.2798   0.4332  17.9855   0.2390     5.639     2.345  -1.84  7.96     13.97575   0  0.000
       795   7512.7837   5304.5273  19.4280   0.4640  19.8667   0.5675  19.3011   0.4397     1.934     1.861  29.38  5.17     13.97978   0  0.663
       796   1363.2275   5305.2344  19.2940   0.4360  19.3679   0.4510  19.2887   0.4371     1.932     1.621 -70.67  3.50     13.95476   0  0.957
       797    276.4352   5306.3887  20.0045   0.6055  21.3918   1.1457  19.9886   0.6064     1.569     1.292  40.43  7.32     13.92731   0  0.017
       798   8237.5322   5348.9805  20.0527   0.6184  20.2287   0.6705  19.7748   0.5485     1.638     1.420 -84.90  3.84     13.98391   0  0.750
       799   7367.4932   5391.9907  20.8981   0.9132  21.4700   1.1876  21.4661   1.2323     1.154     0.967 -89.20  5.09     13.97525   0  0.498
       800   7444.6206   5401.9238  20.4429   0.7408  21.5614   1.2387  20.1814   0.6640     1.376     1.010 -54.76  7.01      13.9865   0  0.029
       801   3851.4961   5406.0859  18.4020   0.2891  18.4457   0.2949  18.2567   0.2709     2.077     1.813 -71.03  3.50     14.00863   0  0.973
       802   7066.4502   5403.5786  18.9994   0.3806  19.0563   0.3907  18.8789   0.3613     1.964     1.668 -76.42  3.50     13.96225   0  0.965
       803   7485.2441   5409.5459  18.8646   0.3580  19.5483   0.4901  18.5739   0.3137     2.561     1.980 -83.78  6.12     13.98154   0  0.180
       804   2334.9668   5414.4956  20.9047   0.9161  21.4117   1.1561  20.5120   0.7765     1.186     1.076 -88.58  4.93     13.98179   0  0.493
       805   8148.0078   5428.7671  16.4318   0.1167  16.4362   0.1169  16.4011   0.1151     2.308     2.021 -72.58  3.50     13.96065   0  0.983
       806   8342.8779   5420.1865  19.1544   0.4091  19.7661   0.5418  19.0704   0.3950     2.574     2.192 -70.58  5.46     13.92862   0  0.000
       807    289.6841   5420.6880  19.3642   0.4503  19.4654   0.4717  19.3020   0.4399     1.901     1.654 -70.24  3.50     13.92125   0  0.952
       808    555.8190   5427.5264  18.1785   0.2610  18.5757   0.3132  18.1410   0.2568     4.708     2.487  -6.37  5.03     13.91045   0  0.004
       809   7798.1162   5424.3438  19.7213   0.5312  20.2489   0.6768  19.6621   0.5203     2.294     1.718  27.43  5.11     13.95254   0  0.004
       810   7572.6738   5447.4077  17.6305   0.2026  17.6474   0.2042  17.5794   0.1981     2.187     1.920 -73.97  3.50     13.97225   0  0.982
       811   3613.8386   5459.2466  20.3791   0.7188  20.6115   0.7997  20.2643   0.6905     1.494     1.328 -78.24  3.98     14.01298   0  0.618
       812   5571.9268   5469.1450  16.8991   0.1447  16.9073   0.1452  16.8736   0.1431     2.250     1.984 -75.25  3.50     14.17615   0  0.985
       813   6644.8247   5472.0850  19.9860   0.5996  20.1107   0.6350  20.0035   0.6106     1.677     1.414 -61.81  3.50     14.01416   0  0.874
       814   3296.4275   5472.8564  19.8626   0.5670  21.8684   1.4269  19.5994   0.5053     1.268     1.001  74.51  8.70     14.03116   0  0.084
       815    971.5511   5491.2368  19.0501   0.3896  19.1104   0.4006  18.9023   0.3653     2.007     1.670 -71.05  3.51     13.93584   0  0.962
       816   1455.5442   5493.6724  19.0593   0.3917  19.6320   0.5094  18.8465   0.3560     3.210     2.095 -22.65  5.59     13.95843   0  0.000
       817   5635.5952   5502.8906  19.5494   0.4904  19.6314   0.5092  19.4911   0.4804     1.791     1.613 -74.89  3.50     14.19484   0  0.941
       818    748.5621   5517.2095  17.7349   0.2126  17.9355   0.2332  17.6308   0.2029     3.779     2.596  -0.91  4.47     13.93083   0  0.093
       819   1313.5265   5515.3633  20.7522   0.8540  21.5276   1.2195  20.7977   0.8900     1.168     1.042 -75.25  5.84     13.97086   0  0.502
       820   1826.2151   5519.2222  19.7765   0.5450  20.6406   0.8106  19.3492   0.4496     2.692     1.209  84.79  6.08     13.96332   0  0.001
       821   1438.2261   5518.9702  19.5645   0.4942  20.2119   0.6653  19.1841   0.4164     2.593     1.423 -49.49  5.64     13.96517   0  0.028
       822   5504.5020   5519.5918  20.3386   0.7056  20.5587   0.7805  20.3324   0.7131     1.456     1.388 -73.48  4.23     14.19203   0  0.644
       823   6140.9326   5522.6372  19.4350   0.4656  20.0996   0.6318  19.3632   0.4526     2.715     1.757  25.38  5.43     14.16127   0  0.003
       824   8097.3027   5555.2959  14.2776   0.0433  14.2655   0.0430  14.2489   0.0427     2.504     2.221 -72.62  3.50     13.96806   0  0.998
       825   6788.6938   5532.7046  20.1794   0.6560  20.7885   0.8677  20.1234   0.6461     1.801     1.364  74.27  5.49     13.99343   0  0.641
       826    851.4806   5538.6587  20.5682   0.7844  20.8307   0.8847  20.5884   0.8052     1.458     1.267 -65.47  4.44     13.94262   0  0.560
       827   6241.3213   5566.1035  20.7743   0.8624  21.1032   1.0030  20.6524   0.8302     1.281     1.170 -72.27  3.98     14.14183   0  0.538
       828   4030.5295   5612.4727  14.1808   0.0414  14.1677   0.0411  14.1527   0.0408     2.685     2.385 -71.94  3.50     14.04746   0  1.000
       829   1642.2034   5580.7754  19.2898   0.4352  19.5143   0.4825  19.2283   0.4250     2.147     1.989 -82.40  4.14     13.97136   0  0.191
       830    672.7684   5580.8975  19.9920   0.6014  20.1575   0.6488  20.0167   0.6144     1.657     1.487 -69.22  3.75     13.91494   0  0.873
       831   1847.4023   5587.2178  19.5229   0.4845  19.6103   0.5043  19.4681   0.4753     1.790     1.609 -71.37  3.62     13.96706   0  0.948
       832   1498.2352   5593.9219  17.7380   0.2129  17.7589   0.2149  17.7044   0.2099     2.132     1.891 -70.27  3.50     13.97703   0  0.981
       833    285.6156   5592.0459  20.1347   0.6426  20.7296   0.8445  20.0646   0.6284     1.737     1.368 -69.55  5.51     13.92663   0  0.442
       834   3623.0007   5598.3359  19.3228   0.4422  19.9640   0.5935  19.3346   0.4466     2.364     1.903 -44.02  5.73     14.03179   0  0.038
       835   3926.9834   5630.5005  19.4322   0.4646  19.5176   0.4832  19.1490   0.4096     1.794     1.551 -77.28  3.52     14.03965   0  0.952
       836   1681.4296   5656.1455  20.9005   0.9141  21.3899   1.1446  20.8851   0.9282     1.210     0.977 -73.88  4.75     13.97003   0  0.510
       837   1505.9911   5704.9546  14.1376   0.0406  14.1252   0.0403  14.1104   0.0401     2.612     2.315 -70.13  3.50     14.01042   0  1.000
       838   6797.4404   5692.5591  15.8719   0.0901  15.8690   0.0900  15.8374   0.0887     2.309     2.060 -76.82  3.50     14.02078   0  0.989
       839   7186.7959   5680.8110  19.4558   0.4697  19.5768   0.4965  19.2044   0.4203     1.887     1.561 -72.36  3.73     13.95797   0  0.939
       840   1432.4906   5701.2812  20.6105   0.8003  21.9794   1.5017  20.2371   0.6817     1.036     1.007  -7.97  7.32     14.00623   0  0.020
       841     55.8884   5707.1172  19.3224   0.4417  19.4058   0.4589  18.9659   0.3762     1.897     1.628 -72.03  3.50     13.95313   0  0.955
       842   1788.6230   5722.0137  18.4815   0.2999  18.5804   0.3138  18.4183   0.2919     2.694     2.419 -86.34  3.78     13.97342   0  0.026
       843    891.6608   5721.2876  20.2705   0.6841  20.9191   0.9215  20.4165   0.7421     1.504     1.371  45.58  5.62     13.93839   0  0.667
       844   7044.3770   5737.4712  17.1106   0.1595  17.1226   0.1604  17.0698   0.1566     2.252     1.950 -76.72  3.50     13.98745   0  0.983
       845     57.0573   5729.3916  19.8864   0.5733  20.6901   0.8293  19.7092   0.5319     2.450     1.225 -25.50  5.78     13.95158   0  0.002
       846    461.9199   5738.8086  18.5601   0.3111  19.1474   0.4075  18.4147   0.2914     3.506     1.980 -50.21  5.79     13.92169   0  0.046
       847   1394.4288   5735.6689  19.5869   0.4994  20.5551   0.7793  19.2470   0.4287     1.913     1.470  82.18  6.87     13.98811   0  0.601
       848   6789.5859   5747.8472  17.7895   0.2180  17.8115   0.2202  17.7046   0.2099     2.138     1.860 -77.50  3.50     14.03676   0  0.981
       849   1101.1829   5762.5527  15.6321   0.0807  15.6287   0.0806  15.6011   0.0796     2.397     2.119 -70.61  3.50     13.97353   0  0.985
       850   5899.6704   5757.7983  18.5864   0.3149  19.0683   0.3929  18.4952   0.3025     3.219     2.506  -8.25  5.20     14.30933   0  0.014
       851     46.7279   5759.4521  17.9007   0.2295  17.9236   0.2319  17.8589   0.2254     2.184     1.876 -69.47  3.50     13.95431   0  0.981
       852    894.2479   5756.6328  19.1046   0.3995  19.1802   0.4136  18.9983   0.3819     1.947     1.708 -70.16  3.50     13.93848   0  0.965
       853   6761.4199   5757.0195  19.7525   0.5388  20.1687   0.6522  19.1656   0.4128     2.147     1.562 -63.79  4.83     14.03915   0  0.322
       854   3284.8245   5756.6577  19.9140   0.5805  20.4212   0.7327  19.8218   0.5607     1.744     1.561  80.12  5.27     14.03339   0  0.776
       855   4211.2363   5779.7539  20.4398   0.7394  20.7166   0.8394  20.0046   0.6109     1.480     1.318  85.62  4.47     14.00396   0  0.583
       856   6775.2612   5779.7563  20.3914   0.7229  20.6142   0.8007  19.9840   0.6051     1.464     1.307  83.49  4.05     14.04046   0  0.616
       857   4085.2004   5784.5605  19.3637   0.4506  21.5689   1.2431  19.1971   0.4189     1.588     1.198 -64.92  8.87     14.04438   0  0.076
       858   4188.5674   5801.0073  19.8867   0.5729  20.0424   0.6153  19.9691   0.6008     1.639     1.453 -74.63  3.72     14.04118   0  0.875
       859   2940.2354   5803.5630  21.1098   1.0070  21.8931   1.4430  20.9231   0.9453     1.061     0.816 -60.54  5.94     14.01042   0  0.516
       860   5925.8955   6312.4922  12.1506   0.0162  12.3239   0.0176  13.3409   0.0281    97.280    31.169  -1.47  3.50     19.77621   2  0.003
       861   4092.1089   5824.4512  19.1309   0.4044  19.2004   0.4175  19.0409   0.3896     1.945     1.664 -71.84  3.50     14.04427   0  0.963
       862   6825.4497   5848.2266  19.2803   0.4337  20.9544   0.9367  19.2076   0.4210     2.005     1.400 -36.51  8.28      14.0357   0  0.002
       863    704.7701   5859.7349  17.3395   0.1772  17.3561   0.1786  17.2908   0.1734     2.245     1.958 -69.14  3.50     13.92803   0  0.983
       864   5650.2065   5852.9761  20.3407   0.7064  20.6605   0.8180  20.2838   0.6969     1.498     1.342 -78.62  4.63     14.34335   0  0.699
       865    772.0862   5854.4277  20.2373   0.6739  21.1472   1.0236  20.3134   0.7067     1.622     1.198  66.88  6.26     13.92844   0  0.594
       866   5906.0571   6312.6890  14.0646   0.0392  14.3339   0.0444  14.3831   0.0454    26.374     4.695  86.43  3.73     19.53848   3  0.633
       867   5084.1221   5882.5459  18.6847   0.3294  19.0375   0.3874  18.4670   0.2986     2.400     2.263 -68.15  5.21     14.15346   0  0.544
       868   7422.3110   5879.9829  20.6214   0.8041  21.4464   1.1747  20.4492   0.7537     1.275     1.006 -89.05  6.23     13.95536   0  0.593
       869   7291.6860   5880.3569  19.7190   0.5308  20.4777   0.7520  19.6406   0.5151     2.350     1.572 -82.45  5.84     13.96714   0  0.002
       870   6182.2847   5885.8281  20.5437   0.7755  20.8298   0.8843  20.7058   0.8517     1.377     1.252 -78.35  4.35     14.36996   0  0.561
       871   8519.8828   5902.0923  20.7206   0.8415  21.1256   1.0134  20.0988   0.6376     1.278     1.167 -50.83  4.89     13.88175  16  0.645
       872   4350.4990   5925.6567  18.0532   0.2462  18.0836   0.2496  17.8588   0.2254     2.112     1.890 -72.21  3.50     13.97328   3  0.978
       873   4340.7935   5931.4541  17.5767   0.1977  17.5965   0.1995  17.4188   0.1840     2.172     1.926 -74.49  3.50     13.95321   3  0.982
       874   2663.0188   6025.9731  14.2188   0.0421  14.2007   0.0418  14.1808   0.0414     3.634     2.884 -85.14  3.50     14.03592   0  0.992
       875   7753.6372   5933.9609  19.5390   0.4881  19.6292   0.5087  19.5273   0.4886     1.791     1.627 -72.97  3.50     13.96033   0  0.936
       876   5972.7505   5934.9570  20.9784   0.9477  21.4388   1.1706  20.3639   0.7238     1.195     1.054 -64.75  4.87      14.4857   0  0.507
       877   5908.7598   5943.3516  17.1081   0.1593  17.1201   0.1602  17.0522   0.1553     2.230     1.956 -76.20  3.50     14.50073   0  0.983
       878   2721.6521   5936.3848  19.5596   0.4927  19.6655   0.5173  19.5893   0.5029     1.819     1.575 -68.48  3.75     14.03077   0  0.943
       879   4662.5112   5954.4785  17.1540   0.1627  17.1663   0.1636  17.1265   0.1607     2.217     1.937 -73.17  3.50     14.03313   0  0.983
       880   7518.3613   5948.2812  19.8280   0.5576  19.9596   0.5923  19.6325   0.5132     1.702     1.473 -80.27  3.74     13.95644   0  0.905
       881      8.4928   5950.7578  20.6103   0.7994  20.1515   0.6470  99.0000  99.0000     1.288     1.041   4.70  3.50     13.94405  16  0.820
       882   3133.9832   5955.8984  19.3007   0.4373  19.3885   0.4553  19.1605   0.4118     1.886     1.574 -73.84  3.50     14.01424   0  0.957
       883   5453.9126   5977.2759  20.0147   0.6077  20.1924   0.6593  19.7132   0.5329     1.600     1.489 -68.83  4.00     14.28584   0  0.815
       884    920.6220   5991.5918  16.9163   0.1458  16.9270   0.1465  16.8892   0.1441     2.292     1.999 -70.19  3.50     13.96042   0  0.983
       885   2603.2263   5983.0630  20.6946   0.8314  21.0578   0.9822  20.5850   0.8039     1.276     1.226 -87.92  4.43     14.03721   0  0.529
       886   6264.7109   5999.7241  16.1021   0.1002  16.1012   0.1002  16.0698   0.0988     2.308     2.042 -77.39  3.50     14.41217   0  0.983
       887   5558.3516   5986.2788  21.0403   0.9749  21.5195   1.2149  21.7292   1.4053     1.137     0.991 -76.72  4.65     14.34259   0  0.490
       888   2763.1094   6002.0581  20.0254   0.6112  21.8368   1.4063  20.0229   0.6162     1.326     1.038 -37.87  8.41     14.02752   0  0.073
       889   6456.9331   6007.4629  20.7596   0.8567  21.1160   1.0089  20.3897   0.7327     1.391     1.124 -60.95  4.60     14.24816   0  0.574
       890   6840.5508   6023.9780  19.1214   0.4026  19.1773   0.4131  19.0892   0.3984     1.899     1.666 -76.35  3.50     14.05606   0  0.961
       891   6582.8555   6035.6772  18.6154   0.3193  19.6630   0.5167  18.5431   0.3093     3.330     2.221  51.11  6.84      14.1741   0  0.002
       892   6438.3159   6029.9741  19.9016   0.5772  20.5847   0.7899  19.6673   0.5216     1.697     1.495 -78.37  5.92     14.26945   0  0.674
       893    338.3509   6144.7988  13.8959   0.0363  13.8754   0.0359  13.8585   0.0357     4.353     3.409  83.71  3.50     13.98578   0  0.997
       894    365.9894   6065.6274  20.9281   0.9258  21.4804   1.1933  20.7359   0.8640     1.105     1.089  -2.77  4.71     13.97386   0  0.543
       895   3652.6157   6068.6416  21.0753   0.9912  21.6917   1.3153  20.6617   0.8339     1.103     0.962 -47.50  5.58     14.03012   0  0.485
       896     19.7395   6081.3369  20.5714   0.7859  21.2409   1.0687  99.0000  99.0000     1.450     1.114 -70.61  5.65     13.92966  16  0.645
       897   3142.6396   6090.3672  20.7283   0.8445  21.0896   0.9968  20.5607   0.7947     1.351     1.212 -80.47  4.49     14.01154   0  0.522
       898   7491.9653   6099.2847  16.5361   0.1224  16.5392   0.1226  16.4958   0.1202     2.252     2.002 -76.51  3.50     13.98802   0  0.984
       899   1741.3774   6103.0938  20.8895   0.9097  21.4792   1.1926  21.0048   0.9834     1.221     0.970 -74.44  5.27     13.98139   0  0.505
       900   7171.2554   6121.6050  17.0228   0.1531  17.0330   0.1539  16.9473   0.1480     2.278     1.950 -76.69  3.50     14.02924   0  0.983
       901   1167.6902   6119.2739  17.1112   0.1595  17.1237   0.1604  17.0774   0.1572     2.261     1.985 -70.16  3.50     13.96976   0  0.983
       902   7696.1118   6112.1724  20.8449   0.8911  21.3940   1.1467  20.6594   0.8330     1.238     1.068 -46.78  5.09     13.97194   0  0.550
       903   6022.9092   6113.1548  20.2005   0.6619  20.3635   0.7134  20.0248   0.6168     1.592     1.351 -78.28  3.53     15.09691   0  0.788
       904   4429.3486   6116.8921  19.2687   0.4311  19.7162   0.5295  18.9693   0.3768     2.137     1.932  35.47  5.23     14.03595   0  0.644
       905   1114.2889   6124.4077  19.9690   0.5951  20.1210   0.6380  19.7170   0.5339     1.770     1.480 -75.07  3.87     13.96705   0  0.870
       906   6546.2827   6152.1392  19.6388   0.5113  20.1114   0.6352  19.3646   0.4529     2.189     1.667 -62.78  5.01     14.24023   0  0.083
       907   1495.9927   6163.6655  20.3183   0.6991  20.6085   0.7986  20.0837   0.6341     1.543     1.297 -78.66  4.56     13.99648   0  0.737
       908    163.3524   6174.5332  18.4133   0.2906  18.4594   0.2968  18.2889   0.2750     2.039     1.848 -67.03  3.51     13.93408   0  0.974
       909   6746.0874   6184.9136  20.4934   0.7579  20.9029   0.9146  20.3009   0.7025     1.510     1.156 -70.11  4.71     14.10601   0  0.550
       910   7390.5879   6211.3076  19.4164   0.4614  19.7421   0.5359  19.0991   0.4002     1.981     1.800 -89.51  4.86     14.01404   0  0.842
       911   6418.1572   6211.8042  20.1662   0.6517  20.3657   0.7141  19.0521   0.3916     1.623     1.369 -70.04  4.43     14.49014   0  0.699
       912    877.7985   6213.4644  20.0188   0.6089  20.1941   0.6598  20.0704   0.6302     1.692     1.457 -75.05  3.85     13.95383   0  0.806
       913   2955.8704   6220.7998  20.7403   0.8492  21.1882   1.0430  20.9606   0.9626     1.315     1.110 -78.50  4.83     14.01759   0  0.627
       914   8496.2637   6236.1299  19.7492   0.5377  19.8804   0.5711  19.7382   0.5392     1.750     1.509 -72.15  3.77     13.89884   0  0.944
       915   8264.0928   6248.7920  16.8092   0.1388  16.8172   0.1393  16.7699   0.1364     2.292     2.002 -72.03  3.50     13.91347   0  0.983
       916   7800.7686   6245.0601  20.6677   0.8216  21.8567   1.4192  20.4354   0.7488     1.282     0.870 -62.52  7.02     13.96331   0  0.437
       917   1118.2197   6253.0679  19.5225   0.4849  20.8774   0.9040  19.2763   0.4346     1.761     1.539  58.65  7.69     13.98134   0  0.001
       918   2256.4165   6258.8032  20.4551   0.7446  20.8345   0.8862  20.3702   0.7259     1.389     1.286 -62.47  4.59     14.00059   0  0.569
       919   4795.7344   6523.3857  16.7457   0.1411  12.4042   0.0183  16.0139   0.0963   370.591    15.130   0.95  3.50      8.36261   1  0.000
       920   4204.1118   6510.0181  12.4838   0.0190  11.2926   0.0109  14.6505   0.0514  2348.340    13.826  -0.33  3.50   0.02175482  19  0.000
       921   7998.1958   6267.6284  19.5756   0.4967  20.2440   0.6752  19.3767   0.4554     1.930     1.706 -67.67  5.98     13.94877   0  0.527
       922   2174.5256   6276.0371  17.1544   0.1627  17.1652   0.1635  17.1270   0.1608     2.227     1.958 -71.95  3.50     14.00298   0  0.985
       923   1333.9008   6272.3105  21.0250   0.9683  21.5935   1.2571  20.5218   0.7801     1.114     1.026 -66.37  5.08     13.97992   0  0.478
       924   6998.6240   6272.0830  19.0319   0.3864  19.0944   0.3976  18.9353   0.3709     1.907     1.673 -79.93  3.50     14.06017   0  0.959
       925    143.2448   6279.5645  19.1630   0.4107  19.7043   0.5266  18.8957   0.3642     2.312     2.015 -71.41  5.64     13.94072   0  0.075
       926   7164.4468   6290.2456  20.4685   0.7497  21.8427   1.4101  20.1429   0.6520     1.219     0.975 -60.63  7.47      14.0427   0  0.169
       927   3299.7178   6294.9736  20.5225   0.7680  20.7612   0.8568  20.2770   0.6946     1.546     1.253 -63.47  4.20     14.02605   0  0.596
       928    538.3300   6301.6172  20.0380   0.6143  20.2217   0.6683  19.9699   0.6011     1.735     1.410 -70.04  3.85     13.93621   0  0.796
       929   4689.2964   6307.6113  18.5137   0.3043  18.5680   0.3120  18.4259   0.2929     2.085     1.771 -70.47  3.50     14.04409   0  0.973
       930   2426.5771   6327.3833  19.3569   0.4492  20.5661   0.7833  18.7086   0.3339     2.141     1.555 -40.43  7.19     14.01296   0  0.003
       931   2105.4143   6336.4673  20.6575   0.8174  21.0517   0.9795  21.3612   1.1701     1.448     1.173 -64.07  4.64     13.99967   0  0.552
       932   4895.0015   6337.9902  20.6540   0.8161  21.0791   0.9919  20.8456   0.9107     1.358     1.150 -48.05  4.79     14.08476   0  0.600
       933    321.5992   6338.7388  19.8240   0.5569  20.4778   0.7520  19.6094   0.5077     1.903     1.464 -82.46  5.79     13.94895   0  0.552
       934   2442.7529   6345.7744  18.4687   0.2983  19.2384   0.4249  18.1403   0.2567     2.791     2.483 -18.59  6.38     14.01299   0  0.019
       935   4049.8499   6347.2925  20.6265   0.8057  20.9919   0.9528  20.5526   0.7916     1.388     1.153 -71.16  4.39      14.0325   0  0.504
       936    427.0404   6347.8154  20.7013   0.8338  21.0984   1.0007  20.9359   0.9512     1.335     1.174 -69.24  3.96     13.95512   0  0.515
       937   2822.8906   6354.5737  20.4180   0.7318  20.7023   0.8339  20.3794   0.7291     1.534     1.250 -63.74  4.13     14.00688   0  0.592
       938   7171.7622   6386.0054  17.3455   0.1777  17.3598   0.1789  17.2977   0.1740     2.218     1.928 -76.14  3.50     14.03933   0  0.982
       939   1897.3414   6381.6079  20.0359   0.6138  20.2463   0.6759  19.6902   0.5272     1.802     1.404 -67.24  4.31     14.00295   0  0.823
       940   6839.1875   6396.7500  18.4796   0.2996  18.5206   0.3053  18.4042   0.2900     2.042     1.747 -73.05  3.50     14.07504   0  0.975
       941   7056.9805   6394.7744  19.6839   0.5218  19.8217   0.5558  19.6343   0.5136     1.756     1.526 -82.34  3.68     14.04947   0  0.933
       942    715.5630   6395.4858  20.7935   0.8704  21.4959   1.2018  19.8500   0.5682     1.076     1.051 -59.51  5.80     13.94327   0  0.575
       943   5961.7822   6396.0518  19.3888   0.4557  19.8762   0.5700  18.1514   0.2580     1.879     1.600 -70.98  5.74     17.20328   0  0.956
       944   3121.4226   6497.0063  14.6379   0.0511  14.0761   0.0394  14.9976   0.0603    45.244    23.054  -7.98  3.50     14.02698  19  0.784
       945   4856.0801   6648.3521  12.2421   0.0170  11.8281   0.0140  15.3988   0.0725   360.987    16.697  -0.89  3.50     5.104562   1  0.000
       946   1585.8999   6415.8779  20.3577   0.7119  20.6132   0.8003  20.0828   0.6338     1.557     1.279 -81.90  4.39     13.99913   0  0.679
       947   2235.0347   6648.0815  10.4079   0.0073  10.5116   0.0076  15.4606   0.0746  1285.116    15.559   0.15  3.50     5.021494  17  0.000
       948   3416.9465   6429.0820  18.2479   0.2693  18.2858   0.2740  18.6453   0.3243     2.048     1.807 -75.45  3.50     14.01652   0  0.980
       949   7281.8472   6449.3149  20.5545   0.7793  20.8744   0.9026  20.2098   0.6729     1.373     1.162 -71.52  4.27     14.00942   0  0.545
       950   5844.5913   6449.7471  19.2791   0.4330  19.3690   0.4512  19.0847   0.3976     1.868     1.674 -71.36  3.64     15.56833   0  0.955
       951   2643.9893   6471.0796  15.0154   0.0608  15.0125   0.0607  15.0900   0.0629     2.367     2.070 -71.20  3.50     14.02952   0  0.991
       952   3785.0830   6527.5635  13.5652   0.0312  13.5340   0.0307  13.7752   0.0343    24.020     5.725   0.33  3.50     7.248798   3  0.977
       953   8399.6045   6462.8267  20.2863   0.6893  21.0471   0.9775  20.2613   0.6895     1.481     1.316 -26.19  6.22     13.89416   0  0.047
       954    871.2287   6472.3540  18.7095   0.3331  18.6810   0.3287  99.0000  99.0000     1.926     1.655 -71.85  3.50     13.96063   0  0.978
       955   7698.5229   6481.9995  20.0461   0.6165  20.1790   0.6553  19.9287   0.5895     1.624     1.412 -85.50  3.58     13.97569   0  0.793
       956   7871.7148   6520.0688  20.5022   0.7607  21.3324   1.1148  99.0000  99.0000     1.554     1.232 -17.74  3.50     13.95607   0  0.389
       957   2078.2610   6591.9614  12.2825   0.0173  12.1437   0.0162  16.7367   0.1343  1196.587     8.132  -0.00  3.50   0.01375958  16  0.000
       958   6292.9678   6624.5669  20.6197   0.8030  21.0622   0.9842  99.0000  99.0000     1.454     1.229 -89.55  3.50     13.87448   0  0.675
       959   1366.7587   6693.7246  19.2038   0.4182  19.2426   0.4257  99.0000  99.0000     1.854     1.637 -73.06  3.50     13.98781   0  0.959
       960   2429.2427   6713.6035  16.6983   0.1319  16.7003   0.1320  17.1786   0.1647     2.269     1.918 -71.13  3.50     13.98304   0  0.984
       961    257.9432   6704.1797  20.0459   0.6164  20.0416   0.6151  99.0000  99.0000     1.559     1.419 -70.73  3.50     13.93436   0  0.889
       962   8181.5200   6728.2197  18.3220   0.2786  18.3507   0.2823  18.3315   0.2804     2.049     1.805 -71.59  3.50     13.92665   0  0.977
       963   8073.5547   6749.3008  17.4247   0.1844  17.7753   0.2166  17.3233   0.1760     4.097     3.340 -26.90  5.13     13.95777   0  0.033
       964   4615.9907   6732.4062  18.2410   0.2684  18.2500   0.2695  99.0000  99.0000     2.009     1.734 -73.38  3.50     14.03522   0  0.980
       965   5085.8345   6760.9419  17.4060   0.1828  17.8998   0.2294  17.3145   0.1753     3.739     3.596   2.35  5.74     14.13535   0  0.065
       966   7736.4072   6772.7627  17.9265   0.2324  18.6123   0.3185  17.9106   0.2308     4.926     3.197 -43.75  5.65     13.98594   2  0.000
       967   7742.8569   6759.2817  19.8901   0.5743  20.7703   0.8605  18.7837   0.3458     1.767     1.369  89.06  6.53      13.9838   3  0.522
       968   8172.6250   6769.5493  18.8251   0.3517  19.6008   0.5022  18.8211   0.3518     3.168     2.967  63.08  5.61     13.93321   0  0.000
       969    654.9441   6778.5728  18.2840   0.2738  18.3519   0.2825  17.8736   0.2269     2.225     1.895 -68.90  3.82     13.95653   0  0.979
       970   3789.9880   6791.1440  18.8106   0.3489  18.9106   0.3653  18.1922   0.2629     2.048     1.762 -76.80  3.95     14.02075   0  0.966
       971   6993.4873   6791.7769  19.2745   0.4326  20.7732   0.8617  19.1224   0.4046     2.070     1.594  20.82  7.76     14.02454   0  0.004
       972   4565.0220   6798.9292  20.2001   0.6622  20.6452   0.8122  19.0494   0.3911     1.619     1.231 -88.55  5.39     14.02879   0  0.607
       973   1666.2697   6804.2314  19.9420   0.5878  20.1739   0.6537  19.0799   0.3967     1.700     1.483 -72.05  4.58      13.9742   0  0.854
       974   3179.2739   6806.1357  20.2150   0.6670  21.6736   1.3044  19.0683   0.3946     1.222     1.089 -67.74  7.84     13.98486   0  0.288
       975   3109.5625   6811.1880  20.7995   0.8727  21.3140   1.1053  19.6572   0.5191     1.292     1.025 -76.32  5.04     13.98196   0  0.495
       976   2447.6370   6828.6089  20.5237   0.7688  21.2455   1.0710  20.7447   0.8677     1.617     1.164 -45.33  5.57     13.96975   0  0.015
       977   4891.9692   6828.5464  20.2755   0.6858  21.1262   1.0137  20.7492   0.8696     1.467     1.237 -85.98  6.30     14.06623   0  0.651
       978    833.6275   6832.0688  20.8497   0.8935  21.8165   1.3931  22.8065   2.4847     1.202     0.916 -80.80  6.49     13.95302   0  0.412
       979   8095.0708   6836.4263  20.1789   0.6559  20.8572   0.8956  20.2630   0.6900     1.746     1.403  -5.78  5.60     13.96981   0  0.018
       980   5938.2090   6840.9204  19.8408   0.5610  20.0669   0.6223  19.6123   0.5083     1.763     1.500 -75.68  4.16     14.36495   0  0.856
       981   3793.5425   6878.5913  18.5056   0.3033  18.7359   0.3371  18.4880   0.3015     4.203     2.049  82.00  4.19     14.01555   0  0.010
       982    505.7354   6868.0474  17.1594   0.1631  17.1712   0.1640  17.1334   0.1613     2.224     2.002 -75.43  3.50     13.94001   0  0.985
       983   7255.9585   6875.8579  20.2255   0.6703  21.7951   1.3795  20.1233   0.6460     1.729     0.766  86.13  7.85      14.0099   0  0.080
       984   7311.3032   6886.8682  20.1404   0.6439  20.2963   0.6916  19.9852   0.6054     1.601     1.373 -76.25  3.75     13.99478   0  0.791
       985   8423.6680   6895.5225  19.1793   0.4135  19.2444   0.4261  19.1280   0.4057     1.904     1.638 -71.17  3.50     13.87971   0  0.960
       986   2161.7612   6923.3711  16.3771   0.1138  16.3799   0.1139  16.3474   0.1122     2.327     2.043 -74.22  3.50      13.9739   0  0.984
       987    725.0945   6933.4912  19.9096   0.5790  20.1084   0.6343  19.8264   0.5619     1.781     1.526 -65.21  4.17     13.95137   0  0.889
       988   3072.7102   6933.4414  20.1074   0.6348  21.1048   1.0038  19.7905   0.5525     1.488     1.384  57.83  6.77     13.97595   0  0.153
       989   2757.4126   6934.5063  20.0902   0.6297  20.7067   0.8356  20.0258   0.6171     1.879     1.445 -58.51  5.47     13.97751   0  0.036
       990   3192.2249   6941.6533  18.9456   0.3713  19.0057   0.3817  18.8342   0.3539     1.995     1.689 -71.41  3.50     13.97947   0  0.964
       991   7787.0205   6944.4980  21.2015   1.0504  21.9119   1.4556  20.5238   0.7809     1.066     0.796 -88.51  5.70     13.97946   0  0.480
       992   4462.4868   6947.8823  20.1180   0.6379  21.6708   1.3028  19.7642   0.5458     1.458     0.974 -41.72  7.89     13.97991   0  0.375
       993   6617.2485   6967.6392  17.0731   0.1567  17.0828   0.1574  17.0380   0.1543     2.243     1.947 -79.35  3.50     14.04639   0  0.982
       994   7198.3164   6973.0190  20.4253   0.7344  20.6985   0.8324  20.2402   0.6826     1.506     1.282 -74.09  4.46     13.98805   0  0.617
       995   7120.4209   6974.1470  20.3544   0.7106  20.5514   0.7779  20.6051   0.8117     1.545     1.320 -73.00  3.50     13.99346   0  0.647
       996   2232.5615   6986.0811  20.7791   0.8644  21.2208   1.0588  20.9409   0.9535     1.282     1.021 -76.64  4.61     13.95664   0  0.554
       997   4584.2627   7018.5205  21.0078   0.9605  21.6947   1.3170  20.2659   0.6910     1.029     0.975 -84.20  5.25     13.97917   0  0.496
       998   8517.7324   7022.1201  20.6372   0.8102  21.6611   1.2969  99.0000  99.0000     1.225     1.077  65.19  6.56     13.74611  16  0.392
       999   3567.5127   7037.4946  20.8785   0.9049  21.3972   1.1484  20.7749   0.8803     1.262     1.007 -76.22  4.55     13.97976   0  0.508
      1000   7972.8789   7073.0981  17.2255   0.1682  17.4868   0.1897  17.0876   0.1579     3.997     3.342  66.94  4.91      14.0342   0  0.063
      1001   6848.8896   7056.8672  18.9091   0.3651  18.9768   0.3767  18.8117   0.3503     2.006     1.716 -73.50  3.50     14.01471   0  0.967
      1002   8263.4570   7168.5283  13.9673   0.0375  13.9389   0.0370  13.9252   0.0368     5.888     4.320 -87.99  3.50     13.99536   0  0.172
      1003   2572.8250   7069.1006  18.5263   0.3061  18.5694   0.3122  18.4888   0.3016     2.106     1.746 -73.33  3.50     13.95311   0  0.974
      1004   4652.0386   7076.9844  19.6977   0.5251  19.8391   0.5603  19.5487   0.4935     1.788     1.522 -73.76  3.78     13.99152   0  0.924
      1005   8131.6763   7080.0239  18.9479   0.3720  19.5122   0.4820  18.7835   0.3457     2.549     2.226 -37.38  5.60     13.99083   0  0.150
      1006   5427.2534   7119.2100  14.2201   0.0421  14.2066   0.0419  14.1871   0.0415     3.097     2.778 -75.69  3.50     14.09992   0  1.000
      1007   8214.3330   7110.0298  18.2150   0.2652  18.3255   0.2791  18.1582   0.2588     3.487     2.029 -55.71  3.71     14.00143   0  0.396
      1008   2694.3101   7099.2402  20.5623   0.7827  21.8814   1.4354  20.2194   0.6760     1.260     0.893 -62.46  7.28     13.96255   0  0.605
      1009   3528.8726   7114.8066  16.7389   0.1344  16.7451   0.1348  16.7091   0.1326     2.353     1.976 -73.13  3.50     13.98101   0  0.984
      1010   5640.7173   7138.5889  14.5081   0.0481  14.4974   0.0479  14.4807   0.0475     2.502     2.196 -68.18  3.50     14.13436   0  0.996
      1011   6592.2603   7117.7109  19.1265   0.4036  19.1911   0.4157  19.0807   0.3969     1.880     1.658 -80.50  3.50     14.03202   0  0.958
      1012   4340.5015   7122.6387  20.4957   0.7591  21.6609   1.2968  19.1302   0.4061     1.374     1.012 -86.47  6.80     13.79612   0  0.592
      1013   6225.3442   7130.1079  19.7855   0.5468  19.9308   0.5845  19.8260   0.5618     1.686     1.504  87.92  3.63     14.08164   0  0.913
      1014   5822.1421   7151.0669  15.2797   0.0686  15.2733   0.0684  15.2494   0.0677     2.431     2.119 -75.76  3.50     14.13903   0  0.987
      1015   8274.7627   7133.5244  19.1641   0.4107  19.3496   0.4472  18.1943   0.2632     1.909     1.669 -74.85  4.52     13.98991   0  0.953
      1016   1051.3544   7134.4600  19.8990   0.5762  20.0756   0.6248  19.9731   0.6019     1.762     1.467 -69.74  3.97     13.94923   0  0.870
      1017   5810.6250   7134.7422  20.4072   0.7285  20.8122   0.8772  19.6289   0.5123     1.387     1.292  62.25  5.21     14.15365   0  0.571
      1018   7906.1587   7136.3945  19.6741   0.5194  19.7927   0.5485  19.7939   0.5534     1.738     1.521 -72.75  3.50     14.02463   0  0.939
      1019   2105.9800   7144.3174  18.3546   0.2828  18.3893   0.2874  18.3253   0.2796     2.072     1.823 -74.93  3.50     13.94885   0  0.976
      1020   7554.8604   7174.7432  15.7989   0.0872  15.7955   0.0870  15.7631   0.0858     2.316     2.077 -76.98  3.50     13.99568   0  0.984
      1021   8111.3877   7158.2026  20.9513   0.9359  21.4465   1.1748  20.3766   0.7282     1.214     0.974 -73.95  5.03     13.99745   0  0.482
      1022   3026.3264   7167.2632  20.5260   0.7692  20.8744   0.9026  20.1926   0.6675     1.383     1.253  88.06  4.42      13.9746   0  0.526
      1023   2004.2402   7181.7583  20.2524   0.6781  20.4954   0.7581  20.4185   0.7428     1.576     1.333 -81.33  4.19     13.95473   0  0.884
      1024   2926.6887   7212.3457  14.8355   0.0559  14.8261   0.0557  14.8055   0.0552     2.494     2.165 -72.89  3.50     13.97596   0  0.993
      1025   5782.9312   7209.5581  15.7317   0.0845  15.7290   0.0844  15.6998   0.0833     2.394     2.074 -75.62  3.50     14.09335   0  0.984
      1026   7890.5952   7205.3369  19.4455   0.4678  19.8939   0.5747  19.1712   0.4139     2.185     1.825  -1.67  5.08      14.0159   0  0.229
      1027    950.9185   7213.0415  20.1229   0.6393  21.4258   1.1638  20.1046   0.6404     1.506     1.194 -19.15  7.16     13.95845   0  0.009
      1028   6951.3096   7213.2578  20.2790   0.6867  20.7968   0.8710  19.8600   0.5708     1.479     1.430 -54.64  5.29     13.99368   0  0.632
      1029   7990.3140   7230.6494  15.9742   0.0945  15.9720   0.0944  15.9456   0.0933     2.298     2.075 -74.93  3.50     14.00521   0  0.984
      1030   3617.6499   7217.3999  19.1228   0.4033  19.8140   0.5539  19.1635   0.4124     3.668     1.706 -16.34  5.53     13.96903   0  0.000
      1031   7903.1733   7231.4907  18.9637   0.3746  19.4252   0.4631  18.8550   0.3574     2.839     1.823  79.67  5.36     14.01529   0  0.119
      1032   7244.9902   7263.1929  20.4187   0.7322  20.7209   0.8410  20.1309   0.6484     1.538     1.245 -85.90  4.48     14.00574   0  0.732
      1033   5186.5488   7285.8516  15.9126   0.0918  15.9112   0.0918  15.8747   0.0903     2.402     2.058 -75.36  3.50     14.03659   0  0.991
      1034   4477.6050   7313.3271  14.1813   0.0414  14.1687   0.0411  14.1505   0.0408     2.869     2.509 -74.61  3.50     14.00411   0  1.000
      1035   7726.5815   7279.3237  19.9014   0.5773  20.8177   0.8795  19.5970   0.5047     1.724     1.472 -85.90  6.55     14.00451   0  0.003
      1036   5177.1812   7307.3262  18.4006   0.2889  18.4431   0.2946  18.1704   0.2603     2.053     1.798 -76.42  3.50     14.03346   0  0.978
      1037   4766.2544   7333.8906  14.8728   0.0569  14.8640   0.0567  14.8435   0.0561     2.473     2.155 -74.66  3.50     14.01426   0  0.997
      1038    697.9305   7319.8110  17.7137   0.2105  17.7354   0.2126  17.6803   0.2076     2.216     1.931 -70.43  3.50     13.95289   0  0.982
      1039   3550.7795   7330.5254  20.8845   0.9077  21.5588   1.2372  20.6788   0.8407     1.250     0.931 -89.32  5.75      13.9628   0  0.537
      1040   5224.3789   7373.4980  19.9226   0.5824  20.0359   0.6135  19.9011   0.5819     1.748     1.417 -75.47  3.78     14.02664   0  0.883
      1041   1780.0280   7372.7222  19.5896   0.4996  19.6891   0.5229  19.4565   0.4727     1.801     1.553 -72.06  3.50     13.95153   0  0.940
      1042   6989.0830   7390.2402  16.8987   0.1446  16.9062   0.1451  16.8734   0.1430     2.250     1.981 -77.28  3.50     14.00772   0  0.983
      1043   5183.0381   7382.2163  20.3700   0.7164  21.3963   1.1480  20.5284   0.7826     1.447     1.172  82.51  6.49     14.02353   0  0.472
      1044   3787.8679   7391.9551  20.1818   0.6569  20.9287   0.9256  20.0722   0.6307     1.629     1.322 -83.16  6.24     13.96764   0  0.477
      1045   4469.0063   7403.6670  20.1724   0.6540  21.0993   1.0012  19.9798   0.6039     1.574     1.210  89.18  6.54     13.98636   0  0.112
      1046     55.8492   7424.8892  15.5952   0.0794  15.5900   0.0792  15.5346   0.0772     2.409     2.148 -73.36  3.50     13.69409   0  0.984
      1047   8178.7344   7479.0386  14.2647   0.0430  14.2507   0.0427  14.2285   0.0423     3.279     2.926 -70.64  3.50      13.9851   0  1.000
      1048   7778.6279   7456.4360  17.4922   0.1901  17.5085   0.1915  17.4631   0.1878     2.160     1.933 -73.46  3.50     14.00652   0  0.982
      1049   4986.8589   7456.1206  20.7844   0.8666  21.1522   1.0259  20.8241   0.9014     1.271     1.164 -51.84  4.60     14.01725   0  0.516
      1050   3438.1948   7462.8936  20.0650   0.6220  20.3456   0.7076  19.9641   0.5994     1.697     1.515  85.03  4.18     13.96536   0  0.843
      1051   3230.5942   7469.8022  17.8871   0.2280  17.9114   0.2306  17.8368   0.2231     2.220     1.845 -72.14  3.50     13.96576   0  0.980
      1052   6721.2095   7469.8213  20.5637   0.7828  20.9430   0.9316  20.7021   0.8502     1.403     1.197 -80.96  4.63     14.01419   0  0.567
      1053   6996.3140   7496.8828  19.2289   0.4235  19.9277   0.5837  19.1836   0.4163     2.997     1.812 -29.46  5.67     14.02877   0  0.001
      1054   7631.2798   7502.8804  20.1227   0.6392  20.8136   0.8778  19.5705   0.4985     1.783     1.277  65.69  6.08     14.00731   0  0.175
      1055   1170.5909   7514.7671  20.2920   0.6905  20.5196   0.7666  20.0618   0.6276     1.559     1.342 -79.00  3.93     13.94999   0  0.596
      1056   5321.8130   7518.0093  20.2015   0.6624  20.4490   0.7421  20.0543   0.6254     1.586     1.352 -86.67  4.36     14.01377   0  0.681
      1057   2422.1001   7529.2495  20.6694   0.8218  21.1056   1.0041  20.6151   0.8156     1.313     1.190  77.92  4.43     13.97296   0  0.550
      1058   2176.3091   7539.7324  17.6348   0.2030  17.6565   0.2050  17.5927   0.1993     2.216     1.911 -74.82  3.50     13.97281   0  0.981
      1059   8126.6665   7540.7534  20.6922   0.8305  20.9956   0.9545  20.3207   0.7091     1.410     1.151 -85.24  4.52     13.99515   0  0.728
      1060   7938.4365   7545.3340  19.4828   0.4757  19.7654   0.5417  19.4232   0.4654     2.159     1.738  87.33  4.41     13.99011   0  0.600
      1061   1947.3672   7588.6299  20.0882   0.6286  20.2711   0.6837  19.8840   0.5773     1.702     1.368 -78.07  3.86     13.98431   0  0.762
      1062   7895.3052   7591.8945  20.5221   0.7683  21.5731   1.2454  20.3264   0.7110     1.214     1.079  64.82  6.68     13.98641   0  0.637
      1063    427.5107   7599.0171  20.3787   0.7191  21.0489   0.9782  20.0860   0.6348     1.442     1.247  -1.68  5.71     13.95778   0  0.672
      1064   7327.6182   7600.6431  20.5068   0.7624  20.7912   0.8688  20.3297   0.7122     1.471     1.325 -50.50  4.12     14.05977   0  0.580
      1065   2285.9846   7616.9937  17.6658   0.2059  17.6868   0.2079  17.6175   0.2016     2.154     1.900 -75.43  3.50     13.98016   0  0.983
      1066   2412.7158   7620.8774  20.2826   0.6876  20.5082   0.7626  20.2336   0.6805     1.552     1.310 -72.12  4.25     13.97542   0  0.733
      1067   1269.7400   7631.1968  18.6020   0.3173  19.9536   0.5908  18.5205   0.3061     2.843     2.212  86.21  7.44     13.95725   0  0.002
      1068   7201.1147   7764.1895  14.1831   0.0414  14.2541   0.0428  14.3633   0.0450    12.604    11.319  -9.57  3.82     14.39097   0  0.029
      1069   5564.5190   7629.4448  19.5892   0.4999  20.1467   0.6457  19.4842   0.4789     2.071     1.991 -43.19  5.26     14.00978   0  0.004
      1070   4477.1328   7661.9160  15.3175   0.0698  15.3112   0.0696  15.2855   0.0688     2.461     2.114 -73.94  3.50     13.97983   0  0.986
      1071   3798.3796   7646.6167  19.9681   0.5951  22.2375   1.6913  19.2001   0.4195     1.062     0.914 -47.20  8.92     13.96858   0  0.373
      1072   2160.4966   7668.1328  16.4446   0.1173  16.4473   0.1175  16.4124   0.1157     2.349     2.043 -79.72  3.50     13.99127   0  0.987
      1073     10.4250   8265.7539  15.3335   0.0705  13.6128   0.0319  16.4210   0.1161   213.433     6.417 -90.00  3.50    -4.967483  25  0.000
      1074    611.2708   7667.5884  17.0324   0.1538  17.0451   0.1547  17.0053   0.1520     2.258     2.009 -74.00  3.50     13.96409   0  0.983
      1075   2693.5447   7675.8115  18.8848   0.3616  20.2291   0.6707  18.8651   0.3590     4.511     1.393 -19.93  7.24     13.98009   0  0.003
      1076    459.8685   7689.0952  19.7006   0.5263  21.5460   1.2300  19.5306   0.4893     1.951     0.890  58.36  8.36     13.95297   0  0.010
      1077   4728.0620   7695.8823  19.5408   0.4885  19.6606   0.5161  19.4508   0.4715     1.905     1.544 -77.18  3.62     13.98818   0  0.948
      1078   7694.7935   7724.7188  14.4062   0.0459  14.3941   0.0456  14.3780   0.0453     2.472     2.213 -73.68  3.50     14.01676   0  0.998
      1079   3148.4629   7701.8218  19.9756   0.5968  20.1463   0.6455  19.7818   0.5503     1.724     1.378 -73.63  3.92     13.96912   0  0.833
      1080   3838.0110   7710.0137  20.3684   0.7157  21.2629   1.0796  20.0820   0.6336     1.396     1.177 -45.78  6.25     13.97118   0  0.610
      1081   7369.3706   7710.9238  20.1280   0.6402  20.3268   0.7014  20.0956   0.6377     1.645     1.371 -71.09  3.75     14.10208   0  0.776
      1082   8512.1953   8023.7344  15.2508   0.0679  13.7114   0.0333  17.3273   0.1763   255.580     6.770 -89.31  3.50     7.196523  50  0.000
      1083   2599.5911   7733.6147  18.8898   0.3621  19.3188   0.4410  18.8319   0.3536     3.237     2.416 -84.65  4.64     13.98261   0  0.000
      1084     45.5362   8147.5938  13.0125   0.0242  12.7920   0.0218  15.6638   0.0819   203.128    13.981  88.81  3.50     2.863535  19  0.403
      1085   1812.8248   7740.4092  20.0071   0.6056  20.1849   0.6571  19.9585   0.5978     1.694     1.492 -74.18  3.97     13.96395   0  0.827
      1086    516.1113   8707.3223  99.0000  99.0000  13.9984   0.0380  17.2478   0.1700   172.648     8.107   0.77  0.00     6.579164  18  0.000
      1087   5950.9429   8708.2715  20.0421   0.6154  20.2194   0.6676  99.0000  99.0000     1.599     1.492 -66.96  3.50     13.92966  16  0.772
      1088   5896.1538   8703.1699  20.1860   0.6581  21.0726   0.9890  99.0000  99.0000     1.462     1.370  74.23  6.37     13.97035  16  0.506
      1089     82.3294   8675.1709  13.7963   0.0347  13.6723   0.0327  14.6970   0.0525    37.646    24.046  75.72  3.50   0.02167026  19  0.000
      1090   2891.7627   8666.7119  21.1586   1.0298  21.9092   1.4538  20.7946   0.8887     1.000     0.876  72.72  5.75     14.01006   0  0.494
      1091   4565.8354   8623.4648  16.3061   0.1101  16.3078   0.1102  16.2796   0.1088     2.274     2.017 -79.28  3.50     13.99272   0  0.983
      1092   1474.2043   8625.0918  20.0273   0.6117  20.9297   0.9260  19.7145   0.5332     1.630     1.375 -76.16  6.37     14.00929   0  0.595
      1093    531.4932   8611.4902  16.8380   0.1407  16.8447   0.1411  17.0065   0.1521     2.246     2.035 -73.18  3.50     14.00689   0  0.987
      1094   4927.3184   8613.8438  20.1950   0.6603  20.4351   0.7373  20.0630   0.6279     1.557     1.362 -87.50  4.04     13.97046   0  0.863
      1095   7059.3101   8699.9824  99.0000  99.0000  13.6165   0.0319  17.8336   0.2228   341.124     5.768  -0.62  0.00     8.102905  16  0.000
      1096   8128.8340   8547.8359  20.5395   0.7745  21.5372   1.2250  20.2012   0.6702     1.263     1.085 -46.99  6.72     14.01258   0  0.669
      1097   1127.2009   8534.7803  19.5748   0.4962  19.6970   0.5248  19.4041   0.4613     1.879     1.577 -72.22  3.52     13.98501   0  0.937
      1098   5682.6855   8529.2100  16.6172   0.1271  16.6234   0.1274  16.5782   0.1248     2.299     1.992 -79.67  3.50     13.94713   0  0.984
      1099   7050.9448   8327.5537  20.4999   0.7601  20.8000   0.8722  20.7554   0.8721     1.411     1.207 -89.67  4.72     13.99087   0  0.620
      1100   5220.8032   8319.7812  16.6242   0.1275  16.6292   0.1278  16.5811   0.1250     2.292     2.000 -77.46  3.50     13.96399   0  0.985
      1101   3296.3618   8310.0293  20.0569   0.6199  20.5757   0.7867  20.0895   0.6358     1.896     1.520 -19.50  4.68     13.96993   0  0.036
      1102   1359.1576   8241.7256  19.9001   0.5764  20.0512   0.6178  19.8756   0.5750     1.774     1.476 -67.29  3.80     13.97944   0  0.869
      1103    813.0845   8214.5020  17.3133   0.1751  17.3291   0.1763  17.2700   0.1718     2.180     1.974 -75.78  3.50     13.95401   0  0.983
      1104   8415.6113   8212.5918  21.4055   1.1531  21.4512   1.1772  99.0000  99.0000     0.969     0.874  51.29  3.50     13.95337   0  0.912
      1105   3307.5649   7851.4102  19.2051   0.4185  19.2789   0.4329  19.2210   0.4236     1.882     1.643 -78.69  3.50     13.97396   0  0.957
      1106   2861.3967   7848.9023  18.4244   0.2921  18.4585   0.2967  18.3723   0.2858     2.071     1.789 -75.53  3.50     13.95394   0  0.976
      1107   4209.3647   7849.3770  20.1350   0.6429  21.1775   1.0380  19.4561   0.4726     1.428     1.278  48.78  6.84      13.8715   0  0.596
      1108   1520.7245   7846.7778  20.1665   0.6518  20.4503   0.7425  20.1610   0.6576     1.630     1.362 -77.29  4.40     13.94755   0  0.777
      1109   6051.1948   7841.9990  19.3152   0.4402  19.4023   0.4582  19.3154   0.4426     1.895     1.641 -75.64  3.50     13.97479   0  0.954
      1110   6215.1411   7829.6582  19.7533   0.5393  20.6690   0.8213  19.7596   0.5446     1.956     1.700  71.21  6.20     13.96843   0  0.001
      1111   3701.1057   8641.1279  20.3449   0.7076  20.6105   0.7993  20.1340   0.6493     1.573     1.277 -81.07  4.11     14.00748   0  0.784
      1112   6620.3921   8622.0596  18.8991   0.3634  18.9312   0.3688  99.0000  99.0000     2.014     1.620 -78.25  3.50     13.95929   0  0.968
      1113   2907.6370   8633.6973  19.8037   0.5516  20.2244   0.6692  19.6517   0.5178     1.854     1.549 -73.73  5.07     14.00532   0  0.843
      1114    411.4803   8560.8340  19.4051   0.4593  20.0879   0.6285  19.2986   0.4392     2.488     2.048 -27.12  5.48     13.98259   0  0.000
      1115   3178.1155   8615.0752  20.2481   0.6767  20.4542   0.7438  20.0144   0.6138     1.599     1.310 -82.80  3.94     13.99448   0  0.852
      1116   7017.4302   8601.5117  18.6445   0.3232  18.6932   0.3305  19.0607   0.3932     2.011     1.782 -70.20  3.50     14.00472   0  0.972
      1117   7589.3486   8593.6504  20.3331   0.7038  20.4665   0.7480  20.2842   0.6970     1.480     1.387 -48.95  4.25       14.015   0  0.651
      1118   6558.3687   8566.8643  20.5738   0.7869  21.7007   1.3208  19.7527   0.5428     1.238     0.989  75.09  6.92      13.9518   0  0.616
      1119   6297.3311   8573.9814  15.5272   0.0769  15.5221   0.0767  15.4959   0.0758     2.375     2.095 -77.06  3.50     13.96104   0  0.985
      1120   7678.0835   8566.1230  18.6090   0.3180  18.6606   0.3256  18.4496   0.2962     1.991     1.786 -75.83  3.50     14.04202   0  0.971
      1121   7681.8350   8530.2480  20.5843   0.7906  21.2724   1.0843  20.1380   0.6505     1.385     1.170 -58.14  5.86     14.03696   0  0.653
      1122   4067.4915   8397.9834  18.3760   0.2856  18.4171   0.2911  18.3531   0.2832     2.124     1.802 -76.68  3.50     13.96952   0  0.977
      1123   2406.6140   8331.3857  21.2211   1.0598  21.8694   1.4274  20.8819   0.9268     1.033     0.897 -48.28  5.10     13.96792   0  0.489
      1124   5488.6108   8505.8896  20.0658   0.6226  20.7432   0.8498  19.6452   0.5162     1.884     1.313 -24.44  5.73     13.94734   0  0.100
      1125   1680.7611   8457.9014  17.7630   0.2154  17.7861   0.2177  17.7368   0.2130     2.193     1.906 -69.45  3.50     13.98978   0  0.982
      1126   3571.4512   8473.2520  17.8048   0.2196  18.1261   0.2546  17.5144   0.1923     4.260     2.563 -53.99  5.18     13.99737   0  0.183
      1127   7542.3267   8417.5693  20.7858   0.8674  21.7078   1.3250  20.6689   0.8368     1.222     0.883 -32.74  6.39     14.00791   0  0.500
      1128   3210.8943   8447.4668  16.0083   0.0960  16.0072   0.0959  15.9732   0.0945     2.377     2.053 -73.50  3.50     14.00684   0  0.983
      1129   8059.9780   8445.8643  20.6405   0.8109  20.9567   0.9375  20.5060   0.7743     1.247     1.236 -68.80  4.46     14.00746   0  0.566
      1130    935.9919   8434.5674  19.4298   0.4641  19.5289   0.4857  19.2556   0.4305     1.790     1.639 -71.72  3.50     13.97339   0  0.950
      1131   5404.5405   8664.3076  19.0084   0.3827  20.2938   0.6910  18.8471   0.3561     2.544     1.973 -80.64  7.20     13.97465   0  0.002
      1132   6039.0029   8165.9932  18.5391   0.3079  18.5883   0.3149  18.4908   0.3019     2.088     1.766 -75.70  3.50     13.93707   0  0.975
      1133   4320.7905   8131.9277  18.4141   0.2907  18.4708   0.2984  99.0000  99.0000     2.082     1.831 -78.89  3.66     13.70947   0  0.974
      1134   6248.2515   8277.9980  19.5145   0.4826  19.6154   0.5054  19.3780   0.4557     1.836     1.606 -75.90  3.50     13.94027   0  0.943
      1135   3021.3904   8180.9902  20.6100   0.7999  21.3075   1.1020  20.5635   0.7958     1.316     1.147  89.94  5.64     13.95406   0  0.669
      1136   4491.8335   8674.5459  20.4649   0.7483  22.0282   1.5358  20.0748   0.6315     1.069     0.910 -75.29  7.93     13.99872   0  0.474
      1137   5513.0137   7853.8701  20.3444   0.7080  21.2893   1.0928  20.4705   0.7613     1.324     1.181 -89.56  6.78     13.99639   0  0.685
      1138    564.6317   8332.7891  15.8726   0.0902  15.8703   0.0901  15.8315   0.0885     2.353     2.136 -70.51  3.50      13.9627   0  0.994
      1139   6375.4722   8016.6045  20.3525   0.7105  21.1203   1.0110  20.2634   0.6902     1.703     1.176  48.06  5.74     13.95795   0  0.077
      1140   1676.7225   8018.7383  20.7538   0.8546  21.2725   1.0843  20.4002   0.7364     1.214     1.147 -59.53  5.24     13.97007   0  0.519
      1141   4089.0605   8249.2969  18.6400   0.3226  18.6872   0.3296  18.6445   0.3241     2.047     1.746 -75.30  3.50     13.97204   0  0.970
      1142   6378.9258   7965.9136  19.5285   0.4861  21.6237   1.2749  19.2204   0.4235     1.345     1.224  45.89  8.68     13.96106   0  0.091
      1143    391.1536   8364.3691  19.4979   0.4789  19.5823   0.4978  19.3287   0.4454     1.786     1.598 -88.76  3.50     13.94436   0  0.952
      1144   1497.0320   8251.6895  19.8764   0.5702  20.0126   0.6069  19.9526   0.5962     1.677     1.515 -78.47  3.51      13.9889   0  0.917
      1145   6161.3105   7993.0371  18.4967   0.3020  18.5403   0.3081  18.4734   0.2995     2.022     1.774 -80.21  3.50     13.97324   0  0.974
      1146   8482.3330   8658.4697  14.8294   0.0558  14.5659   0.0494  15.0461   0.0616    20.804    17.783 -35.42  3.50     3.153356  50  0.000
      1147   1901.4427   8009.7534  19.9096   0.5795  20.8164   0.8789  19.4810   0.4781     1.636     1.487 -75.33  6.41     13.97926   0  0.264
      1148   1712.3033   7945.5288  20.4437   0.7406  20.6603   0.8179  20.2813   0.6961     1.456     1.327 -82.43  4.08     13.96261   0  0.568
      1149   1044.5056   7973.7437  17.0011   0.1516  17.0100   0.1522  16.9666   0.1493     2.283     2.011 -73.07  3.50     13.96425   0  0.983
      1150    267.0888   8158.9629  16.9002   0.1447  16.9085   0.1453  16.8883   0.1440     2.250     2.059 -74.11  3.50     13.94805   0  0.983
      1151   4552.3872   8127.3105  16.5144   0.1212  16.5173   0.1213  16.4779   0.1192     2.295     2.010 -78.04  3.50     13.98063   0  0.983
      1152   1928.3481   8022.0122  18.5569   0.3105  18.5984   0.3164  18.4237   0.2926     2.075     1.778 -77.29  3.50      13.9774   0  0.977
      1153   3569.6448   7948.3706  20.6570   0.8172  21.1346   1.0176  20.5041   0.7736     1.423     1.065 -79.15  4.91     13.96515   0  0.540
      1154   5850.0933   7742.6489  18.4652   0.2976  18.5076   0.3035  18.3822   0.2871     2.074     1.784 -77.90  3.50     13.97429   0  0.976
      1155   1172.4812   7925.1562  18.2030   0.2637  18.2351   0.2677  18.1514   0.2580     2.162     1.870 -72.88  3.50     13.96324   0  0.979
      1156   7050.4390   7848.6118  14.0253   0.0385  14.0124   0.0383  13.9954   0.0380     3.236     2.824 -49.31  3.50     14.16796   0  1.000
      1157   8365.5264   7862.9663  20.0627   0.6219  21.7686   1.3628  19.8306   0.5630     1.548     0.970  62.11  8.12     13.94621   0  0.135
      1158   1294.7164   8681.0312  20.5240   0.7687  20.9562   0.9373  19.6087   0.5075     1.288     1.247  -4.51  5.32     13.94197   0  0.545
      1159   7789.1685   7972.6382  18.4806   0.2997  18.5202   0.3052  18.4539   0.2968     1.994     1.787 -72.92  3.50     14.00343   0  0.971
      1160   7907.3789   7868.3638  20.3605   0.7128  20.6283   0.8059  20.3557   0.7210     1.457     1.324 -53.90  4.48     13.99649   0  0.574
      1161   8410.4854   7849.1929  21.1454   1.0229  21.1279   1.0144  99.0000  99.0000     1.118     0.913 -51.83  3.50     13.94125   0  0.723
      1162   6558.8281   8641.5264  20.7040   0.8348  20.8837   0.9065  99.0000  99.0000     1.415     1.166 -80.68  3.50     13.95636   0  0.636
      1163   3488.3499   8026.2734  18.9509   0.3722  19.0044   0.3815  18.8431   0.3554     2.028     1.692 -70.90  3.50     13.96709   0  0.969
      1164    954.5490   7776.1875  15.3579   0.0711  15.3517   0.0709  15.3279   0.0702     2.412     2.161 -73.59  3.50     13.96955   0  0.988
      1165   4668.7788   7766.4736  18.7841   0.3451  19.8629   0.5666  18.8218   0.3519     4.720     1.548  -2.89  6.65     13.97688   0  0.003
      1166   1555.0038   7943.9907  17.6182   0.2015  17.6379   0.2033  17.5884   0.1989     2.286     1.945 -70.52  3.50     13.96848   0  0.982
      1167   6649.7231   8052.5112  19.6331   0.5101  21.6541   1.2929  19.4429   0.4697     1.416     1.193 -89.18  8.58     13.97277   0  0.017
      1168   8197.9863   7965.0493  19.7833   0.5465  20.2755   0.6851  19.7932   0.5533     2.050     1.546 -82.92  4.95     13.96607   0  0.498
      1169   1733.7681   8245.3623  20.6054   0.7980  21.0156   0.9633  20.5116   0.7764     1.401     1.150 -71.06  4.77     13.96856   0  0.510
      1170   6686.5332   8409.6660  20.4546   0.7448  21.4517   1.1776  19.8847   0.5775     1.356     1.013 -85.12  6.73     13.96217   0  0.570
      1171   4677.9077   7899.5356  19.4838   0.4762  20.2537   0.6783  18.9360   0.3711     1.978     1.687  82.10  6.28     13.98036   0  0.161
      1172    200.4366   8084.8672  20.6003   0.7964  21.3655   1.1318  19.1718   0.4140     1.312     1.030 -76.04  6.12     13.94848   0  0.698
      1173   7460.7549   7771.6685  18.0084   0.2411  18.0359   0.2442  17.9670   0.2369     2.170     1.847 -75.48  3.50     14.03966   0  0.981
      1174    303.6461   8329.2129  18.7536   0.3399  18.8135   0.3494  18.7001   0.3326     1.959     1.814 -62.81  3.50     13.96315   0  0.973
      1175    207.3750   7999.1655  20.0372   0.6145  20.8886   0.9087  19.2427   0.4279     1.629     1.365 -72.16  6.40     13.93956   0  0.354
      1176    565.7746   8310.9727  17.8708   0.2263  17.9026   0.2297  17.7208   0.2115     2.117     1.923 -72.19  3.50     13.96402   0  0.981
      1177   4931.5869   8029.6387  20.2150   0.6665  20.3886   0.7217  20.2342   0.6807     1.546     1.370 -85.89  4.04      13.9675   0  0.761
      1178    965.5607   8271.4248  20.6959   0.8319  21.1261   1.0136  20.6648   0.8352     1.402     1.132 -70.70  4.36     13.95747   0  0.542
      1179   4205.5752   8350.8721  17.5746   0.1977  18.4204   0.2916  17.5882   0.1989     5.378     3.600  78.42  6.35      13.8986   0  0.000
      1180   3123.0554   8682.0449  16.8568   0.1419  16.8640   0.1423  16.8176   0.1394     2.245     1.987 -74.24  3.50     13.99558   0  0.983
      1181   6951.2349   8296.7393  17.9447   0.2342  17.9729   0.2372  17.9111   0.2309     2.136     1.844 -76.54  3.50     13.99393   0  0.979
      1182   2912.7151   7821.7349  18.8689   0.3584  18.9346   0.3694  18.8255   0.3525     1.999     1.672 -72.86  3.50     13.94947   0  0.966
      1183   3379.5645   8028.7285  21.0999   1.0020  21.6119   1.2678  21.0209   0.9911     1.185     0.957 -62.68  4.38     13.97636   0  0.490
      1184   7863.6582   8106.9199  19.0544   0.3904  19.1287   0.4040  18.9798   0.3787     1.907     1.671 -74.27  3.53     13.99221   0  0.965
      1185   2067.1216   8120.9663  20.7492   0.8526  21.0723   0.9888  20.9117   0.9402     1.279     1.165 -51.92  4.55     13.97087   0  0.632
      1186   6699.9448   8587.1396  20.0424   0.6156  20.2309   0.6711  19.6426   0.5156     1.569     1.453 -72.82  4.23     13.95674   0  0.825
      1187   6580.5718   8258.3926  20.7299   0.8452  21.2252   1.0610  20.7336   0.8631     1.429     1.007 -82.61  5.23     13.97379   0  0.513
      1188   1645.9409   8079.2231  20.8391   0.8888  21.5934   1.2570  20.3057   0.7041     1.236     1.008 -64.71  5.37     13.97132   0  0.616
      1189   4623.2202   7937.3154  17.6703   0.2064  17.6927   0.2085  17.5998   0.2000     2.142     1.891 -79.22  3.50     13.97681   0  0.981
      1190   3817.8550   8646.0098  14.0458   0.0389  14.0294   0.0386  14.0081   0.0382     3.528     3.143 -76.59  3.50      14.0515   0  1.000
      1191   3310.5239   8453.2266  15.7421   0.0849  15.9236   0.0923  15.8849   0.0907    12.355     4.581  45.45  4.26     14.01776   0  0.028
      1192   2174.4656   8016.0977  19.7291   0.5331  20.2907   0.6899  19.4861   0.4793     2.020     1.422 -75.25  5.74     13.95899   0  0.845
      1193   4335.4624   8345.1416  17.2375   0.1691  17.2544   0.1704  17.0771   0.1571     2.267     1.967 -76.19  3.50     13.75017   0  0.983
      1194   4859.7197   7842.3037  21.1731   1.0369  21.9602   1.4884  21.1981   1.0802     0.998     0.876 -73.90  5.99     13.99162   0  0.451
      1195   1902.6177   8464.3818  20.5696   0.7850  21.0138   0.9625  20.4499   0.7539     1.417     1.247 -53.37  4.91     13.97257   0  0.587
      1196   7607.9307   7979.2944  19.6517   0.5141  19.7768   0.5445  19.5950   0.5043     1.739     1.561 -84.37  3.64     14.02026   0  0.936
      1197   7666.8618   8187.2329  17.9066   0.2302  18.0954   0.2510  17.8920   0.2289     3.925     3.283  87.66  4.10     14.01768   0  0.012
      1198   8471.0215   8101.5171  21.2184   1.0579  21.1071   1.0047  99.0000  99.0000     1.051     0.924 -14.49  3.50     13.92399   0  0.672
      1199   3369.6689   7929.5898  18.8714   0.3588  18.9274   0.3682  18.8388   0.3547     2.021     1.699 -76.86  3.50     13.98021   0  0.966
      1200   4030.6870   7741.4946  20.1786   0.6557  20.5814   0.7887  20.1343   0.6494     1.753     1.357 -71.22  4.98     13.96688   0  0.688
      1201   2954.8804   7916.8232  19.2293   0.4235  19.8356   0.5595  19.1371   0.4074     2.559     2.103 -80.95  5.43     13.95074   0  0.001
      1202   8464.4180   8100.0532  20.6462   0.8126  20.6177   0.8019  99.0000  99.0000     1.054     0.940 -76.25  3.50     13.92473   0  0.874
      1203   1837.6022   8166.8877  20.1083   0.6350  21.2088   1.0530  20.0664   0.6290     1.539     1.262 -14.47  6.87     13.96919   0  0.019
      1204   1118.5889   7862.3652  19.2690   0.4310  19.3400   0.4452  19.2847   0.4363     1.916     1.642 -79.58  3.50     13.96659   0  0.955
      1205    705.4645   7981.7729  18.0721   0.2483  18.1066   0.2523  18.0152   0.2423     2.154     1.881 -74.90  3.50     13.94317   0  0.980
      1206   5114.2070   7781.0640  20.0409   0.6155  20.7537   0.8539  19.9548   0.5968     1.635     1.402 -86.68  5.97     13.99575   0  0.703
      1207   5208.5112   7796.5620  20.2499   0.6775  20.8201   0.8804  19.6773   0.5240     1.485     1.454 -50.42  5.14     13.98356   0  0.689
      1208   2438.7192   7766.9575  20.2908   0.6907  21.7984   1.3816  19.9946   0.6081     1.304     0.905 -72.07  7.93     13.98088   0  0.561
      1209   2573.2007   7810.3467  18.6886   0.3301  19.2842   0.4340  18.3262   0.2797     2.504     2.183  81.72  5.97     13.98887   0  0.277
      1210   8117.4258   8685.4561  17.0897   0.1579  16.9878   0.1507  99.0000  99.0000     4.177     2.032  -0.78  3.50     11.24175   0  0.977
      1211   5471.2041   8341.6318  19.9473   0.5892  20.1371   0.6427  19.6993   0.5295     1.712     1.455 -80.32  4.03     13.94833   0  0.863
      1212   2341.9214   8069.8887  14.6553   0.0515  14.6448   0.0512  14.6265   0.0508     2.504     2.198 -72.49  3.50     13.97118   0  0.989
      1213   1974.3582   8335.0303  20.2452   0.6763  21.3933   1.1465  20.2685   0.6918     1.450     1.271  11.19  6.56     13.97078   0  0.010
      1214   8014.7856   7751.9492  20.1712   0.6537  21.4406   1.1717  19.8509   0.5684     1.483     1.158 -39.85  7.13     13.98972   0  0.069
      1215    285.1671   7878.4468  19.8582   0.5659  20.7399   0.8485  19.6800   0.5247     2.003     1.253 -67.89  6.41     13.92684   0  0.242
      1216   4405.7231   8023.8550  20.6513   0.8150  21.0956   0.9995  20.6938   0.8468     1.378     1.152 -74.57  4.47      13.9546   0  0.510
      1217   4948.0288   8433.1660  17.3409   0.1773  17.3556   0.1785  17.3034   0.1744     2.193     1.910 -80.66  3.50     13.94997   0  0.983
      1218   8067.1597   7961.6021  18.4719   0.2989  19.5094   0.4815  18.4085   0.2906     3.236     2.814  68.84  6.69     13.98248   0  0.000
      1219   2490.7009   7912.7817  20.7847   0.8668  21.2069   1.0520  20.6912   0.8457     1.211     1.151 -61.19  5.00     13.98474   0  0.577
      1220   4245.0195   8552.9775  19.9126   0.5797  19.7810   0.5455  99.0000  99.0000     1.911     1.338 -85.04  3.50     13.76015   0  0.924
      1221   2767.5337   7976.0117  20.3169   0.6986  20.5835   0.7895  20.1452   0.6527     1.606     1.315 -69.95  4.32     13.95313   0  0.603
      1222   8481.8965   8342.1992  14.7454   0.0537  14.7320   0.0533  14.7504   0.0538     2.949     2.425  -6.68  3.50     13.72489  34  0.994
